TITLE,
DATA TYPE,INFRARED SPECTRUM
ORIGIN,JASCO
OWNER,
DATE,24/08/21
TIME,12:36:07
SPECTROMETER/DATA SYSTEM,
LOCALE,9226
RESOLUTION,
DELTAX,0.964233
XUNITS,1/CM
YUNITS,TRANSMITTANCE
FIRSTX,  249.7365
LASTX, 5000.5148
NPOINTS,    4928
FIRSTY,    83.39817
MAXY,    99.93680
MINY,    72.70588
XYDATA
249.7365,83.3982
250.7007,85.5272
251.6649,86.992
252.6292,87.8693
253.5934,88.0792
254.5576,87.7595
255.5219,87.5528
256.4861,87.9627
257.4503,88.9653
258.4146,90.3376
259.3788,91.8517
260.3430,93.281
261.3073,94.4003
262.2715,95.008
263.2357,94.9518
264.2000,94.1723
265.1642,92.8278
266.1284,91.438
267.0927,90.7101
268.0569,90.9759
269.0211,91.9666
269.9854,93.1781
270.9496,94.2228
271.9138,94.9165
272.8781,95.2409
273.8423,95.2763
274.8065,95.1259
275.7708,94.844
276.7350,94.3943
277.6992,93.6832
278.6635,92.7921
279.6277,92.3796
280.5919,92.9724
281.5562,93.6916
282.5204,93.8475
283.4846,93.6281
284.4489,93.3849
285.4131,93.3682
286.3773,93.7354
287.3416,94.5562
288.3058,95.7066
289.2701,96.6708
290.2343,96.7163
291.1985,95.7624
292.1628,94.5358
293.1270,93.6932
294.0912,93.481
295.0555,93.91
296.0197,94.8698
296.9839,96.1425
297.9482,97.4347
298.9124,98.4526
299.8766,98.933
300.8409,98.5874
301.8051,97.1724
302.7693,95.0933
303.7336,93.6033
304.6978,93.2443
305.6620,93.5311
306.6263,93.9802
307.5905,94.3608
308.5547,94.5462
309.5190,94.4251
310.4832,93.9092
311.4474,92.9873
312.4117,91.7711
313.3759,90.5089
314.3401,89.552
315.3044,89.2121
316.2686,89.5267
317.2328,90.2054
318.1971,90.8892
319.1613,91.3928
320.1255,91.7206
321.0898,91.9827
322.0540,92.3203
323.0182,92.8319
323.9825,93.4828
324.9467,94.0479
325.9109,94.1981
326.8752,93.774
327.8394,93.0015
328.8036,92.2868
329.7679,91.8468
330.7321,91.6573
331.6963,91.5991
332.6606,91.5632
333.6248,91.4963
334.5890,91.4256
335.5533,91.4349
336.5175,91.5678
337.4817,91.7705
338.4460,91.955
339.4102,92.0823
340.3744,92.1874
341.3387,92.3473
342.3029,92.593
343.2671,92.8285
344.2314,92.875
345.1956,92.6081
346.1598,92.0318
347.1241,91.2646
348.0883,90.5077
349.0525,90.0264
350.0168,90.0985
350.9810,90.8396
351.9452,91.9561
352.9095,92.8525
353.8737,93.1927
354.8379,93.1347
355.8022,93.0259
356.7664,93.0821
357.7306,93.2782
358.6949,93.4292
359.6591,93.37
360.6233,93.0772
361.5876,92.6687
362.5518,92.3326
363.5160,92.24
364.4803,92.47
365.4445,92.9711
366.4087,93.5776
367.3730,94.0733
368.3372,94.2826
369.3014,94.1524
370.2657,93.7586
371.2299,93.2198
372.1941,92.6119
373.1584,91.9744
374.1226,91.3932
375.0868,91.0564
376.0511,91.1309
377.0153,91.5438
377.9795,92.0273
378.9438,92.3537
379.9080,92.4279
380.8722,92.2512
381.8365,91.8792
382.8007,91.4035
383.7649,90.9294
384.7292,90.5282
385.6934,90.1981
386.6576,89.8911
387.6219,89.5788
388.5861,89.2803
389.5503,89.0424
390.5146,88.9105
391.4788,88.9068
392.4430,89.0252
393.4073,89.2406
394.3715,89.5269
395.3357,89.8655
396.3000,90.225
397.2642,90.5242
398.2284,90.6492
399.1927,90.5651
400.1569,90.3729
401.1211,90.2198
402.0854,90.2094
403.0496,90.3765
404.0138,90.6833
404.9781,91.0198
405.9423,91.2324
406.9065,91.1961
407.8708,90.8924
408.8350,90.4317
409.7992,90.0013
410.7635,89.7761
411.7277,89.8369
412.6919,90.1384
413.6562,90.5499
414.6204,90.9279
415.5846,91.1618
416.5489,91.1751
417.5131,90.9274
418.4773,90.4616
419.4416,89.948
420.4058,89.5764
421.3700,89.3936
422.3343,89.3241
423.2985,89.2787
424.2627,89.2059
425.2270,89.0961
426.1912,88.9699
427.1554,88.8592
428.1197,88.7856
429.0839,88.749
430.0481,88.7263
431.0124,88.6789
431.9766,88.5673
432.9408,88.3713
433.9051,88.1087
434.8693,87.8395
435.8335,87.6454
436.7978,87.5888
437.7620,87.6764
438.7262,87.8519
439.6905,88.0215
440.6547,88.0957
441.6189,88.0318
442.5832,87.8615
443.5474,87.68
444.5116,87.5919
445.4759,87.6502
446.4401,87.8374
447.4043,88.0903
448.3686,88.3394
449.3328,88.5366
450.2970,88.6659
451.2613,88.7378
452.2255,88.7749
453.1897,88.7968
454.1540,88.8115
455.1182,88.8153
456.0824,88.7986
457.0467,88.7541
458.0109,88.6829
458.9751,88.595
459.9394,88.5024
460.9036,88.4132
461.8678,88.3314
462.8321,88.2588
463.7963,88.1923
464.7605,88.1179
465.7248,88.0088
466.6890,87.8351
467.6532,87.583
468.6175,87.2717
469.5817,86.9536
470.5459,86.6975
471.5102,86.5542
472.4744,86.5232
473.4386,86.5516
474.4029,86.5783
475.3671,86.5848
476.3313,86.6064
477.2956,86.7037
478.2598,86.924
479.2240,87.2764
480.1883,87.7285
481.1525,88.2221
482.1167,88.6912
483.0810,89.0751
484.0452,89.3275
485.0094,89.4291
485.9737,89.3971
486.9379,89.2798
487.9021,89.1339
488.8664,89.0037
489.8306,88.9103
490.7948,88.8517
491.7591,88.8086
492.7233,88.7528
493.6875,88.6572
494.6518,88.5052
495.6160,88.2972
496.5802,88.0507
497.5445,87.7889
498.5087,87.5227
499.4729,87.2318
500.4372,86.866
501.4014,86.3768
502.3656,85.7739
503.3299,85.1626
504.2941,84.7176
505.2583,84.6058
506.2226,84.9051
507.1868,85.5593
508.1510,86.3887
509.1153,87.1593
510.0795,87.6838
511.0437,87.8943
512.0080,87.8423
512.9722,87.6355
513.9365,87.3626
514.9007,87.0458
515.8649,86.6426
516.8292,86.0973
517.7934,85.4205
518.7576,84.7353
519.7219,84.2397
520.6861,84.1084
521.6503,84.4196
522.6146,85.1373
523.5788,86.1279
524.5430,87.1868
525.5073,88.0891
526.4715,88.6691
527.4357,88.8841
528.4000,88.8064
529.3642,88.555
530.3284,88.2311
531.2927,87.8955
532.2569,87.5745
533.2211,87.2723
534.1854,86.9751
535.1496,86.6491
536.1138,86.2451
537.0781,85.7129
538.0423,85.023
539.0065,84.1813
539.9708,83.2247
540.9350,82.2011
541.8992,81.1474
542.8635,80.0791
543.8277,78.9993
544.7919,77.9216
545.7562,76.8948
546.7204,76.0125
547.6846,75.3983
548.6489,75.1679
549.6131,75.3882
550.5773,76.0527
551.5416,77.0843
552.5058,78.3599
553.4700,79.7432
554.4343,81.1124
555.3985,82.3758
556.3627,83.4775
557.3270,84.3955
558.2912,85.1338
559.2554,85.7103
560.2197,86.1378
561.1839,86.409
562.1481,86.4918
563.1124,86.3432
564.0766,85.9348
565.0408,85.2731
566.0051,84.4029
566.9693,83.3908
567.9335,82.3009
568.8978,81.177
569.8620,80.0381
570.8262,78.8888
571.7905,77.7335
572.7547,76.588
573.7189,75.4848
574.6832,74.4744
575.6474,73.6239
576.6116,73.0098
577.5759,72.7059
578.5401,72.7692
579.5043,73.229
580.4686,74.0827
581.4328,75.2979
582.3970,76.8201
583.3613,78.5818
584.3255,80.507
585.2897,82.5118
586.2540,84.5058
587.2182,86.4
588.1824,88.1214
589.1467,89.6232
590.1109,90.8873
591.0751,91.9177
592.0394,92.7339
593.0036,93.3664
593.9678,93.8549
594.9321,94.2413
595.8963,94.5593
596.8605,94.8238
597.8248,95.0286
598.7890,95.1562
599.7532,95.1961
600.7175,95.1616
601.6817,95.0918
602.6459,95.0367
603.6102,95.0366
604.5744,95.1066
605.5386,95.2335
606.5029,95.3838
607.4671,95.517
608.4313,95.5994
609.3956,95.6136
610.3598,95.5623
611.3240,95.4657
612.2883,95.3544
613.2525,95.2594
614.2167,95.2025
615.1810,95.189
616.1452,95.2065
617.1094,95.2299
618.0737,95.234
619.0379,95.2055
620.0021,95.1459
620.9664,95.063
621.9306,94.9595
622.8948,94.828
623.8591,94.6572
624.8233,94.4461
625.7875,94.216
626.7518,94.0083
627.7160,93.8651
628.6802,93.8043
629.6445,93.8072
630.6087,93.825
631.5729,93.8034
632.5372,93.7119
633.5014,93.5592
634.4656,93.3861
635.4299,93.2369
636.3941,93.1322
637.3583,93.0611
638.3226,92.9973
639.2868,92.9238
640.2510,92.848
641.2153,92.7963
642.1795,92.7961
643.1437,92.8576
644.1080,92.9709
645.0722,93.1167
646.0364,93.2812
647.0007,93.4623
647.9649,93.6633
648.9291,93.8812
649.8934,94.0984
650.8576,94.2865
651.8218,94.4174
652.7861,94.4751
653.7503,94.4607
654.7145,94.3933
655.6788,94.3039
656.6430,94.2235
657.6072,94.1666
658.5715,94.122
659.5357,94.0585
660.4999,93.9457
661.4642,93.7802
662.4284,93.5889
663.3926,93.4071
664.3569,93.2511
665.3211,93.1001
666.2853,92.881
667.2496,92.4644
668.2138,91.7479
669.1780,90.8187
670.1423,89.8865
671.1065,89.0389
672.0707,88.2426
673.0350,87.4695
673.9992,86.7562
674.9634,86.1951
675.9277,85.8766
676.8919,85.8173
677.8561,85.9474
678.8204,86.1804
679.7846,86.4919
680.7488,86.9352
681.7131,87.5916
682.6773,88.498
683.6415,89.6067
684.6058,90.7975
685.5700,91.9243
686.5342,92.8658
687.4985,93.5623
688.4627,94.0248
689.4269,94.3152
690.3912,94.5091
691.3554,94.6608
692.3196,94.7869
693.2839,94.8724
694.2481,94.8916
695.2123,94.8312
696.1766,94.7042
697.1408,94.5467
698.1050,94.4
699.0693,94.2899
700.0335,94.2155
700.9977,94.1546
701.9620,94.0801
702.9262,93.975
703.8904,93.8363
704.8547,93.6662
705.8189,93.4577
706.7831,93.1905
707.7474,92.8437
708.7116,92.4182
709.6758,91.955
710.6401,91.5323
711.6043,91.2385
712.5685,91.1312
713.5328,91.2039
714.4970,91.3814
715.4612,91.5503
716.4255,91.6034
717.3897,91.4722
718.3539,91.1336
719.3182,90.5981
720.2824,89.8931
721.2466,89.0563
722.2109,88.1415
723.1751,87.2299
724.1393,86.4338
725.1036,85.8811
726.0678,85.6803
727.0320,85.8747
727.9963,86.41
728.9605,87.1418
729.9247,87.8879
730.8890,88.4989
731.8532,88.9121
732.8174,89.1636
733.7817,89.3608
734.7459,89.6294
735.7101,90.0607
736.6744,90.6795
737.6386,91.4408
738.6028,92.2519
739.5671,93.0089
740.5313,93.6309
741.4955,94.0822
742.4598,94.3743
743.4240,94.5511
744.3882,94.6639
745.3525,94.7485
746.3167,94.8122
747.2809,94.8379
748.2452,94.799
749.2094,94.6783
750.1736,94.4778
751.1379,94.2156
752.1021,93.9146
753.0663,93.5925
754.0306,93.2608
754.9948,92.9331
755.9590,92.6333
756.9233,92.3936
757.8875,92.241
758.8517,92.1797
759.8160,92.1825
760.7802,92.1987
761.7444,92.1758
762.7087,92.0834
763.6729,91.9264
764.6371,91.7408
765.6014,91.5755
766.5656,91.4707
767.5298,91.4442
768.4941,91.4889
769.4583,91.5798
770.4225,91.6852
771.3868,91.7759
772.3510,91.8321
773.3152,91.846
774.2795,91.8223
775.2437,91.776
776.2079,91.7281
777.1722,91.7015
778.1364,91.7179
779.1006,91.7953
780.0649,91.9453
781.0291,92.1682
781.9933,92.4478
782.9576,92.7504
783.9218,93.0326
784.8860,93.2555
785.8503,93.3968
786.8145,93.4532
787.7787,93.4292
788.7430,93.3223
789.7072,93.119
790.6714,92.8104
791.6357,92.4176
792.5999,92.0109
793.5641,91.6985
794.5284,91.5868
795.4926,91.7295
796.4568,92.0953
797.4211,92.5754
798.3853,93.0273
799.3495,93.3304
800.3138,93.4238
801.2780,93.3094
802.2422,93.0279
803.2065,92.6273
804.1707,92.1466
805.1349,91.619
806.0992,91.0864
807.0634,90.6075
808.0276,90.2503
808.9919,90.0699
809.9561,90.086
810.9203,90.2724
811.8846,90.5676
812.8488,90.8988
813.8130,91.2087
814.7773,91.471
815.7415,91.6889
816.7057,91.8807
817.6700,92.0633
818.6342,92.2395
819.5984,92.3956
820.5627,92.5055
821.5269,92.5381
822.4911,92.4667
823.4554,92.2784
824.4196,91.9803
825.3839,91.5972
826.3481,91.1606
827.3123,90.6945
828.2766,90.2093
829.2408,89.713
830.2050,89.2344
831.1693,88.8401
832.1335,88.6274
833.0977,88.6868
834.0620,89.0526
835.0262,89.6716
835.9904,90.4146
836.9547,91.1281
837.9189,91.6988
838.8831,92.0957
839.8474,92.3675
840.8116,92.6016
841.7758,92.8728
842.7401,93.2095
843.7043,93.5916
844.6685,93.973
845.6328,94.3094
846.5970,94.5763
847.5612,94.7692
848.5255,94.893
849.4897,94.9492
850.4539,94.9288
851.4182,94.8157
852.3824,94.5973
853.3466,94.2797
854.3109,93.8996
855.2751,93.5246
856.2393,93.239
857.2036,93.1175
858.1678,93.1975
859.1320,93.4633
860.0963,93.8508
861.0605,94.2721
862.0247,94.6462
862.9890,94.923
863.9532,95.0889
864.9174,95.1577
865.8817,95.1541
866.8459,95.0985
867.8101,94.9998
868.7744,94.8539
869.7386,94.649
870.7028,94.3748
871.6671,94.0344
872.6313,93.6557
873.5955,93.2941
874.5598,93.0224
875.5240,92.908
876.4882,92.9873
877.4525,93.2494
878.4167,93.6382
879.3809,94.0737
880.3452,94.4801
881.3094,94.8078
882.2736,95.0404
883.2379,95.1871
884.2021,95.2683
885.1663,95.3036
886.1306,95.3061
887.0948,95.2834
888.0590,95.2406
889.0233,95.1845
889.9875,95.1241
890.9517,95.0693
891.9160,95.0288
892.8802,95.0062
893.8444,94.999
894.8087,94.9985
895.7729,94.9935
896.7371,94.9748
897.7014,94.9388
898.6656,94.8883
899.6298,94.8307
900.5941,94.7738
901.5583,94.7225
902.5225,94.6776
903.4868,94.6361
904.4510,94.5942
905.4152,94.5494
906.3795,94.5016
907.3437,94.4526
908.3079,94.4043
909.2722,94.3562
910.2364,94.3034
911.2006,94.2371
912.1649,94.1473
913.1291,94.0261
914.0933,93.8714
915.0576,93.6874
916.0218,93.4827
916.9860,93.266
917.9503,93.041
918.9145,92.8024
919.8787,92.5353
920.8430,92.2197
921.8072,91.8388
922.7714,91.3918
923.7357,90.9045
924.6999,90.4324
925.6641,90.0532
926.6284,89.8478
927.5926,89.8763
928.5568,90.1581
929.5211,90.6646
930.4853,91.3275
931.4495,92.0584
932.4138,92.7719
933.3780,93.4029
934.3422,93.9139
935.3065,94.2937
936.2707,94.552
937.2349,94.7121
938.1992,94.8029
939.1634,94.8512
940.1276,94.8761
941.0919,94.8862
942.0561,94.8833
943.0203,94.8679
943.9846,94.8446
944.9488,94.8221
945.9130,94.8085
946.8773,94.8051
947.8415,94.8036
948.8057,94.7888
949.7700,94.747
950.7342,94.6734
951.6984,94.5756
952.6627,94.4701
953.6269,94.3732
954.5911,94.2926
955.5554,94.2229
956.5196,94.1499
957.4838,94.0591
958.4481,93.9465
959.4123,93.8218
960.3765,93.7034
961.3408,93.6079
962.3050,93.5402
963.2692,93.4917
964.2335,93.4467
965.1977,93.3914
966.1619,93.3202
967.1262,93.234
968.0904,93.1352
969.0546,93.0237
970.0189,92.8975
970.9831,92.7574
971.9473,92.6096
972.9116,92.4644
973.8758,92.332
974.8400,92.2205
975.8043,92.1369
976.7685,92.0913
977.7327,92.0971
978.6970,92.1678
979.6612,92.3094
980.6254,92.5137
981.5897,92.7569
982.5539,93.0042
983.5181,93.2169
984.4824,93.3626
985.4466,93.4247
986.4108,93.4099
987.3751,93.3509
988.3393,93.2994
989.3035,93.3091
990.2678,93.4157
991.2320,93.6206
992.1962,93.8897
993.1605,94.1683
994.1247,94.4029
995.0889,94.5605
996.0532,94.6349
997.0174,94.6409
997.9816,94.6014
998.9459,94.5354
999.9101,94.4518
1000.8743,94.3504
1001.8386,94.2279
1002.8028,94.0859
1003.7670,93.9372
1004.7313,93.8069
1005.6955,93.7269
1006.6597,93.7234
1007.6240,93.8045
1008.5882,93.9534
1009.5524,94.1333
1010.5167,94.3008
1011.4809,94.4217
1012.4451,94.4806
1013.4094,94.4816
1014.3736,94.4404
1015.3378,94.3743
1016.3021,94.2951
1017.2663,94.2067
1018.2305,94.1063
1019.1948,93.9883
1020.1590,93.8497
1021.1232,93.6954
1022.0875,93.5407
1023.0517,93.4092
1024.0160,93.324
1024.9802,93.2978
1025.9445,93.3248
1026.9087,93.3809
1027.8729,93.4325
1028.8372,93.4491
1029.8014,93.4145
1030.7656,93.3316
1031.7299,93.2199
1032.6941,93.1074
1033.6583,93.0203
1034.6226,92.9751
1035.5868,92.9733
1036.5510,93.0026
1037.5153,93.0436
1038.4795,93.078
1039.4437,93.0961
1040.4080,93.0985
1041.3722,93.0915
1042.3364,93.0803
1043.3007,93.064
1044.2649,93.0357
1045.2291,92.9874
1046.1934,92.9165
1047.1576,92.8272
1048.1218,92.7292
1049.0861,92.6327
1050.0503,92.5447
1051.0145,92.4679
1051.9788,92.4013
1052.9430,92.3414
1053.9072,92.2812
1054.8715,92.2096
1055.8357,92.1117
1056.7999,91.9714
1057.7642,91.7773
1058.7284,91.5271
1059.6926,91.23
1060.6569,90.904
1061.6211,90.5698
1062.5853,90.2444
1063.5496,89.9372
1064.5138,89.6509
1065.4780,89.3867
1066.4423,89.1501
1067.4065,88.9531
1068.3707,88.8096
1069.3350,88.7263
1070.2992,88.6941
1071.2634,88.6863
1072.2277,88.6661
1073.1919,88.6023
1074.1561,88.4827
1075.1204,88.3193
1076.0846,88.142
1077.0488,87.985
1078.0131,87.874
1078.9773,87.8204
1079.9415,87.8232
1080.9058,87.876
1081.8700,87.9733
1082.8342,88.1132
1083.7985,88.2963
1084.7627,88.5224
1085.7269,88.7876
1086.6912,89.083
1087.6554,89.3959
1088.6196,89.7135
1089.5839,90.0286
1090.5481,90.3437
1091.5123,90.6712
1092.4766,91.0277
1093.4408,91.4232
1094.4050,91.8519
1095.3693,92.2884
1096.3335,92.6944
1097.2977,93.0317
1098.2620,93.2756
1099.2262,93.4226
1100.1904,93.4878
1101.1547,93.4953
1102.1189,93.4669
1103.0831,93.4142
1104.0474,93.3372
1105.0116,93.2293
1105.9758,93.084
1106.9401,92.9
1107.9043,92.6818
1108.8685,92.4358
1109.8328,92.1646
1110.7970,91.8646
1111.7612,91.5286
1112.7255,91.1528
1113.6897,90.7462
1114.6539,90.3345
1115.6182,89.9562
1116.5824,89.6501
1117.5466,89.439
1118.5109,89.3184
1119.4751,89.256
1120.4393,89.2036
1121.4036,89.117
1122.3678,88.973
1123.3320,88.7781
1124.2963,88.5626
1125.2605,88.3668
1126.2247,88.2248
1127.1890,88.154
1128.1532,88.153
1129.1174,88.2053
1130.0817,88.2866
1131.0459,88.371
1132.0101,88.436
1132.9744,88.4658
1133.9386,88.4532
1134.9028,88.3997
1135.8671,88.3124
1136.8313,88.1989
1137.7955,88.0625
1138.7598,87.9008
1139.7240,87.7084
1140.6882,87.4834
1141.6525,87.2349
1142.6167,86.9863
1143.5809,86.7747
1144.5452,86.644
1145.5094,86.6357
1146.4736,86.7801
1147.4379,87.0908
1148.4021,87.5638
1149.3663,88.1793
1150.3306,88.9036
1151.2948,89.6889
1152.2590,90.4716
1153.2233,91.1751
1154.1875,91.7203
1155.1517,92.0461
1156.1160,92.1326
1157.0802,92.0162
1158.0444,91.7858
1159.0087,91.5594
1159.9729,91.4489
1160.9371,91.5293
1161.9014,91.8235
1162.8656,92.3065
1163.8298,92.9212
1164.7941,93.598
1165.7583,94.2691
1166.7225,94.8787
1167.6868,95.3886
1168.6510,95.7817
1169.6152,96.06
1170.5795,96.2386
1171.5437,96.3377
1172.5079,96.3756
1173.4722,96.3675
1174.4364,96.3241
1175.4006,96.2493
1176.3649,96.1341
1177.3291,95.954
1178.2933,95.6784
1179.2576,95.2934
1180.2218,94.8282
1181.1860,94.3654
1182.1503,94.0221
1183.1145,93.9055
1184.0787,94.0647
1185.0430,94.4655
1186.0072,95.0048
1186.9714,95.5543
1187.9357,96.0122
1188.8999,96.3327
1189.8641,96.5244
1190.8284,96.6244
1191.7926,96.6694
1192.7568,96.6804
1193.7211,96.6646
1194.6853,96.6261
1195.6495,96.5743
1196.6138,96.5237
1197.5780,96.4884
1198.5422,96.4756
1199.5065,96.4836
1200.4707,96.5049
1201.4349,96.531
1202.3992,96.5553
1203.3634,96.5732
1204.3276,96.5817
1205.2919,96.5786
1206.2561,96.5636
1207.2203,96.5391
1208.1846,96.5097
1209.1488,96.4803
1210.1130,96.4533
1211.0773,96.4277
1212.0415,96.4002
1213.0057,96.3678
1213.9700,96.3304
1214.9342,96.2903
1215.8984,96.2505
1216.8627,96.2123
1217.8269,96.1744
1218.7911,96.1344
1219.7554,96.091
1220.7196,96.0455
1221.6838,96.0007
1222.6481,95.9593
1223.6123,95.9219
1224.5765,95.887
1225.5408,95.8516
1226.5050,95.8124
1227.4692,95.7669
1228.4335,95.7151
1229.3977,95.6589
1230.3619,95.603
1231.3262,95.5527
1232.2904,95.5126
1233.2546,95.4833
1234.2189,95.4616
1235.1831,95.4411
1236.1473,95.4154
1237.1116,95.3798
1238.0758,95.332
1239.0400,95.2704
1240.0043,95.193
1240.9685,95.0962
1241.9327,94.9759
1242.8970,94.8295
1243.8612,94.6582
1244.8254,94.4691
1245.7897,94.2768
1246.7539,94.103
1247.7181,93.9728
1248.6824,93.908
1249.6466,93.9188
1250.6108,93.9978
1251.5751,94.1208
1252.5393,94.2534
1253.5035,94.3615
1254.4678,94.4206
1255.4320,94.4196
1256.3962,94.3598
1257.3605,94.2514
1258.3247,94.1095
1259.2889,93.9515
1260.2532,93.793
1261.2174,93.6447
1262.1816,93.5103
1263.1459,93.3891
1264.1101,93.2802
1265.0743,93.1879
1266.0386,93.1226
1267.0028,93.097
1267.9670,93.12
1268.9313,93.1928
1269.8955,93.3076
1270.8597,93.4512
1271.8240,93.6087
1272.7882,93.7671
1273.7524,93.917
1274.7167,94.0533
1275.6809,94.1759
1276.6451,94.2888
1277.6094,94.3983
1278.5736,94.5093
1279.5378,94.621
1280.5021,94.7248
1281.4663,94.8062
1282.4305,94.8499
1283.3948,94.8469
1284.3590,94.7983
1285.3232,94.7162
1286.2875,94.6193
1287.2517,94.5265
1288.2159,94.4507
1289.1802,94.3968
1290.1444,94.3622
1291.1086,94.3384
1292.0729,94.3112
1293.0371,94.2588
1294.0013,94.1547
1294.9656,93.978
1295.9298,93.7294
1296.8940,93.4435
1297.8583,93.1856
1298.8225,93.0283
1299.7867,93.0179
1300.7510,93.1488
1301.7152,93.3616
1302.6794,93.5678
1303.6437,93.688
1304.6079,93.6837
1305.5721,93.5674
1306.5364,93.387
1307.5006,93.1964
1308.4648,93.029
1309.4291,92.8875
1310.3933,92.7518
1311.3575,92.5951
1312.3218,92.3981
1313.2860,92.1545
1314.2502,91.8665
1315.2145,91.5385
1316.1787,91.1744
1317.1429,90.784
1318.1072,90.3917
1319.0714,90.0387
1320.0356,89.7728
1320.9999,89.6316
1321.9641,89.6316
1322.9283,89.7709
1323.8926,90.0389
1324.8568,90.425
1325.8210,90.9196
1326.7853,91.5092
1327.7495,92.1692
1328.7137,92.8603
1329.6780,93.5302
1330.6422,94.1227
1331.6064,94.5923
1332.5707,94.9168
1333.5349,95.1013
1334.4991,95.1696
1335.4634,95.1495
1336.4276,95.0623
1337.3918,94.9228
1338.3561,94.7485
1339.3203,94.5691
1340.2845,94.4236
1341.2488,94.3435
1342.2130,94.3399
1343.1772,94.4042
1344.1415,94.5143
1345.1057,94.6405
1346.0699,94.7489
1347.0342,94.808
1347.9984,94.796
1348.9626,94.7059
1349.9269,94.5426
1350.8911,94.3146
1351.8553,94.0277
1352.8196,93.6881
1353.7838,93.3138
1354.7480,92.9455
1355.7123,92.644
1356.6765,92.4714
1357.6407,92.4704
1358.6050,92.6564
1359.5692,93.0194
1360.5334,93.5209
1361.4977,94.0861
1362.4619,94.6137
1363.4261,95.0204
1364.3904,95.2811
1365.3546,95.4202
1366.3188,95.4753
1367.2831,95.472
1368.2473,95.4212
1369.2115,95.3246
1370.1758,95.1793
1371.1400,94.9806
1372.1042,94.7281
1373.0685,94.4409
1374.0327,94.171
1374.9969,93.9931
1375.9612,93.9667
1376.9254,94.1041
1377.8896,94.3726
1378.8539,94.7152
1379.8181,95.0673
1380.7823,95.3711
1381.7466,95.5907
1382.7108,95.7181
1383.6750,95.7645
1384.6393,95.7434
1385.6035,95.6623
1386.5677,95.5271
1387.5320,95.3537
1388.4962,95.1675
1389.4604,94.9896
1390.4247,94.826
1391.3889,94.6728
1392.3531,94.5252
1393.3174,94.3852
1394.2816,94.2595
1395.2458,94.1496
1396.2101,94.0413
1397.1743,93.9089
1398.1385,93.7329
1399.1028,93.5145
1400.0670,93.2692
1401.0313,93.0105
1401.9955,92.736
1402.9597,92.4279
1403.9240,92.0658
1404.8882,91.6461
1405.8524,91.1901
1406.8167,90.7315
1407.7809,90.2933
1408.7451,89.8817
1409.7094,89.5011
1410.6736,89.1708
1411.6378,88.924
1412.6021,88.7903
1413.5663,88.7819
1414.5305,88.9049
1415.4948,89.182
1416.4590,89.6604
1417.4232,90.3747
1418.3875,91.2665
1419.3517,92.1646
1420.3159,92.9093
1421.2802,93.4676
1422.2444,93.899
1423.2086,94.2698
1424.1729,94.6109
1425.1371,94.9205
1426.1013,95.1855
1427.0656,95.3977
1428.0298,95.5557
1428.9940,95.6598
1429.9583,95.7093
1430.9225,95.7059
1431.8867,95.6539
1432.8510,95.552
1433.8152,95.3851
1434.7794,95.1309
1435.7437,94.7899
1436.7079,94.4249
1437.6721,94.1425
1438.6364,94.012
1439.6006,94.0291
1440.5648,94.1514
1441.5291,94.3312
1442.4933,94.5214
1443.4575,94.6719
1444.4218,94.7306
1445.3860,94.6538
1446.3502,94.4241
1447.3145,94.0708
1448.2787,93.6749
1449.2429,93.3385
1450.2072,93.1311
1451.1714,93.0634
1452.1356,93.1059
1453.0999,93.2227
1454.0641,93.3916
1455.0283,93.6038
1455.9926,93.8404
1456.9568,94.0357
1457.9210,94.1127
1458.8853,94.0787
1459.8495,94.0029
1460.8137,93.9452
1461.7780,93.9503
1462.7422,94.0637
1463.7064,94.3234
1464.6707,94.7177
1465.6349,95.1594
1466.5991,95.5421
1467.5634,95.8178
1468.5276,95.9989
1469.4918,96.1148
1470.4561,96.1828
1471.4203,96.2005
1472.3845,96.1553
1473.3488,96.0537
1474.3130,95.9324
1475.2772,95.8268
1476.2415,95.7464
1477.2057,95.682
1478.1699,95.6201
1479.1342,95.5491
1480.0984,95.4616
1481.0626,95.3548
1482.0269,95.2326
1482.9911,95.1029
1483.9553,94.9741
1484.9196,94.8485
1485.8838,94.7166
1486.8480,94.5527
1487.8123,94.3183
1488.7765,93.9909
1489.7407,93.605
1490.7050,93.2343
1491.6692,92.9238
1492.6334,92.6674
1493.5977,92.4284
1494.5619,92.1534
1495.5261,91.7816
1496.4904,91.2804
1497.4546,90.7123
1498.4188,90.2399
1499.3831,90.0016
1500.3473,90.0184
1501.3115,90.2367
1502.2758,90.6001
1503.2400,91.0806
1504.2042,91.6814
1505.1685,92.4175
1506.1327,93.2384
1507.0969,93.9313
1508.0612,94.3029
1509.0254,94.4433
1509.9896,94.5267
1510.9539,94.6297
1511.9181,94.7624
1512.8823,94.9175
1513.8466,95.0864
1514.8108,95.2617
1515.7750,95.4347
1516.7393,95.5957
1517.7035,95.7357
1518.6677,95.849
1519.6320,95.933
1520.5962,95.9876
1521.5604,96.0166
1522.5247,96.0252
1523.4889,96.0157
1524.4531,95.9846
1525.4174,95.9285
1526.3816,95.8517
1527.3458,95.768
1528.3101,95.6915
1529.2743,95.626
1530.2385,95.5608
1531.2028,95.4729
1532.1670,95.3395
1533.1312,95.1596
1534.0955,94.9645
1535.0597,94.7925
1536.0239,94.659
1536.9882,94.5555
1537.9524,94.4625
1538.9166,94.3629
1539.8809,94.2615
1540.8451,94.2053
1541.8093,94.2409
1542.7736,94.3569
1543.7378,94.5159
1544.7020,94.691
1545.6663,94.8661
1546.6305,95.0293
1547.5947,95.1722
1548.5590,95.2866
1549.5232,95.3611
1550.4874,95.3788
1551.4517,95.3261
1552.4159,95.206
1553.3801,95.04
1554.3444,94.8529
1555.3086,94.651
1556.2728,94.4051
1557.2371,94.0555
1558.2013,93.6062
1559.1655,93.2598
1560.1298,93.2122
1561.0940,93.4263
1562.0582,93.7925
1563.0225,94.239
1563.9867,94.7154
1564.9509,95.1689
1565.9152,95.5371
1566.8794,95.7575
1567.8436,95.7936
1568.8079,95.6714
1569.7721,95.4824
1570.7363,95.3214
1571.7006,95.2259
1572.6648,95.1777
1573.6290,95.1307
1574.5933,95.0238
1575.5575,94.7952
1576.5217,94.4267
1577.4860,93.9712
1578.4502,93.4943
1579.4144,93.014
1580.3787,92.5187
1581.3429,92.0117
1582.3071,91.535
1583.2714,91.1613
1584.2356,90.953
1585.1998,90.9181
1586.1641,91.0008
1587.1283,91.1092
1588.0925,91.1533
1589.0568,91.0782
1590.0210,90.887
1590.9852,90.6466
1591.9495,90.4719
1592.9137,90.492
1593.8779,90.8053
1594.8422,91.4363
1595.8064,92.3203
1596.7706,93.3336
1597.7349,94.348
1598.6991,95.2697
1599.6633,96.0465
1600.6276,96.6576
1601.5918,97.1014
1602.5560,97.3916
1603.5203,97.5552
1604.4845,97.6275
1605.4487,97.642
1606.4130,97.6231
1607.3772,97.5839
1608.3414,97.53
1609.3057,97.4661
1610.2699,97.3993
1611.2341,97.3362
1612.1984,97.277
1613.1626,97.2123
1614.1268,97.1221
1615.0911,96.9821
1616.0553,96.7859
1617.0195,96.5672
1617.9838,96.3754
1618.9480,96.2306
1619.9122,96.1195
1620.8765,96.02
1621.8407,95.919
1622.8049,95.8202
1623.7692,95.7411
1624.7334,95.6984
1625.6976,95.6929
1626.6619,95.7113
1627.6261,95.736
1628.5903,95.754
1629.5546,95.7597
1630.5188,95.7534
1631.4830,95.7376
1632.4473,95.7122
1633.4115,95.6718
1634.3757,95.6038
1635.3400,95.4983
1636.3042,95.3708
1637.2684,95.2618
1638.2327,95.2028
1639.1969,95.2037
1640.1611,95.2635
1641.1254,95.3776
1642.0896,95.5414
1643.0538,95.7563
1644.0181,96.0363
1644.9823,96.3993
1645.9465,96.828
1646.9108,97.2367
1647.8750,97.5335
1648.8392,97.7054
1649.8035,97.7953
1650.7677,97.8457
1651.7319,97.8788
1652.6962,97.8983
1653.6604,97.9033
1654.6246,97.905
1655.5889,97.9165
1656.5531,97.9404
1657.5173,97.9733
1658.4816,98.0096
1659.4458,98.0412
1660.4100,98.057
1661.3743,98.0474
1662.3385,98.0138
1663.3027,97.9721
1664.2670,97.9405
1665.2312,97.9276
1666.1954,97.9325
1667.1597,97.9492
1668.1239,97.9689
1669.0881,97.9821
1670.0524,97.9842
1671.0166,97.9797
1671.9808,97.9768
1672.9451,97.9794
1673.9093,97.9862
1674.8735,97.9929
1675.8378,97.9962
1676.8020,97.9971
1677.7662,98
1678.7305,98.0089
1679.6947,98.0256
1680.6589,98.0484
1681.6232,98.0715
1682.5874,98.0828
1683.5516,98.0701
1684.5159,98.0376
1685.4801,98.006
1686.4443,97.9891
1687.4086,97.9868
1688.3728,97.9934
1689.3370,98.0044
1690.3013,98.0176
1691.2655,98.0326
1692.2297,98.0494
1693.1940,98.0673
1694.1582,98.0842
1695.1224,98.0979
1696.0867,98.1078
1697.0509,98.1158
1698.0151,98.1226
1698.9794,98.1237
1699.9436,98.1109
1700.9078,98.0817
1701.8721,98.0429
1702.8363,98.0059
1703.8005,97.9796
1704.7648,97.9686
1705.7290,97.9714
1706.6932,97.9813
1707.6575,97.9899
1708.6217,97.9916
1709.5859,97.9857
1710.5502,97.9745
1711.5144,97.961
1712.4786,97.9474
1713.4429,97.9346
1714.4071,97.9224
1715.3713,97.9099
1716.3356,97.8987
1717.2998,97.8941
1718.2640,97.9013
1719.2283,97.9185
1720.1925,97.9395
1721.1567,97.9564
1722.1210,97.9628
1723.0852,97.9544
1724.0494,97.9321
1725.0137,97.9027
1725.9779,97.8767
1726.9421,97.8624
1727.9064,97.8626
1728.8706,97.8739
1729.8348,97.8904
1730.7991,97.9061
1731.7633,97.9164
1732.7275,97.9193
1733.6918,97.9166
1734.6560,97.9128
1735.6202,97.912
1736.5845,97.9161
1737.5487,97.9247
1738.5129,97.9354
1739.4772,97.9442
1740.4414,97.9455
1741.4056,97.9356
1742.3699,97.9155
1743.3341,97.8903
1744.2983,97.8659
1745.2626,97.8464
1746.2268,97.8338
1747.1910,97.8287
1748.1553,97.8302
1749.1195,97.836
1750.0837,97.842
1751.0480,97.8445
1752.0122,97.8426
1752.9764,97.8379
1753.9407,97.8326
1754.9049,97.8287
1755.8691,97.8271
1756.8334,97.827
1757.7976,97.8262
1758.7618,97.8223
1759.7261,97.8141
1760.6903,97.8031
1761.6545,97.7928
1762.6188,97.7871
1763.5830,97.7878
1764.5472,97.794
1765.5115,97.8033
1766.4757,97.813
1767.4399,97.8206
1768.4042,97.8238
1769.3684,97.8197
1770.3326,97.8053
1771.2969,97.7794
1772.2611,97.746
1773.2253,97.7141
1774.1896,97.6924
1775.1538,97.6839
1776.1180,97.6872
1777.0823,97.6987
1778.0465,97.7149
1779.0107,97.7327
1779.9750,97.7504
1780.9392,97.7675
1781.9034,97.7837
1782.8677,97.7973
1783.8319,97.8048
1784.7961,97.8031
1785.7604,97.7921
1786.7246,97.7756
1787.6888,97.7598
1788.6531,97.75
1789.6173,97.7493
1790.5815,97.756
1791.5458,97.7634
1792.5100,97.7625
1793.4742,97.75
1794.4385,97.7316
1795.4027,97.7173
1796.3669,97.7159
1797.3312,97.7335
1798.2954,97.7706
1799.2596,97.8199
1800.2239,97.8652
1801.1881,97.8883
1802.1523,97.8801
1803.1166,97.8447
1804.0808,97.7941
1805.0450,97.741
1806.0093,97.6947
1806.9735,97.6605
1807.9377,97.6414
1808.9020,97.6386
1809.8662,97.6511
1810.8304,97.6746
1811.7947,97.702
1812.7589,97.7261
1813.7231,97.7427
1814.6874,97.7512
1815.6516,97.7535
1816.6158,97.7519
1817.5801,97.7482
1818.5443,97.7425
1819.5085,97.7345
1820.4728,97.7239
1821.4370,97.7118
1822.4012,97.7004
1823.3655,97.693
1824.3297,97.6927
1825.2939,97.7009
1826.2582,97.7157
1827.2224,97.732
1828.1866,97.7424
1829.1509,97.7404
1830.1151,97.7252
1831.0793,97.7044
1832.0436,97.6894
1833.0078,97.6878
1833.9720,97.7005
1834.9363,97.7221
1835.9005,97.7426
1836.8647,97.7526
1837.8290,97.7486
1838.7932,97.7367
1839.7574,97.7289
1840.7217,97.7374
1841.6859,97.7691
1842.6501,97.8195
1843.6144,97.8698
1844.5786,97.8936
1845.5428,97.8776
1846.5071,97.8329
1847.4713,97.7847
1848.4355,97.7558
1849.3998,97.758
1850.3640,97.7896
1851.3282,97.8366
1852.2925,97.8783
1853.2567,97.8968
1854.2209,97.8842
1855.1852,97.8458
1856.1494,97.797
1857.1136,97.7569
1858.0779,97.7408
1859.0421,97.7544
1860.0063,97.7922
1860.9706,97.8396
1861.9348,97.8803
1862.8990,97.9033
1863.8633,97.9072
1864.8275,97.8982
1865.7917,97.8861
1866.7560,97.8783
1867.7202,97.8756
1868.6844,97.8719
1869.6487,97.8617
1870.6129,97.8468
1871.5771,97.8337
1872.5414,97.8276
1873.5056,97.8274
1874.4698,97.8271
1875.4341,97.8195
1876.3983,97.8018
1877.3625,97.779
1878.3268,97.7608
1879.2910,97.7545
1880.2552,97.7597
1881.2195,97.7687
1882.1837,97.7715
1883.1479,97.7621
1884.1122,97.7419
1885.0764,97.7187
1886.0406,97.7024
1887.0049,97.7015
1887.9691,97.7198
1888.9333,97.7533
1889.8976,97.7901
1890.8618,97.8151
1891.8260,97.8186
1892.7903,97.8019
1893.7545,97.7776
1894.7188,97.7643
1895.6830,97.7758
1896.6472,97.8119
1897.6115,97.8565
1898.5757,97.8868
1899.5399,97.8873
1900.5042,97.8579
1901.4684,97.8136
1902.4326,97.7758
1903.3969,97.7591
1904.3611,97.7633
1905.3253,97.774
1906.2896,97.7727
1907.2538,97.748
1908.2180,97.7039
1909.1823,97.659
1910.1465,97.6368
1911.1107,97.651
1912.0750,97.6986
1913.0392,97.7639
1914.0034,97.8283
1914.9677,97.878
1915.9319,97.9084
1916.8961,97.9245
1917.8604,97.9365
1918.8246,97.953
1919.7888,97.9755
1920.7531,97.9974
1921.7173,98.0094
1922.6815,98.0046
1923.6458,97.9835
1924.6100,97.955
1925.5742,97.9323
1926.5385,97.9265
1927.5027,97.9415
1928.4669,97.9723
1929.4312,98.0067
1930.3954,98.0301
1931.3596,98.0312
1932.3239,98.0083
1933.2881,97.971
1934.2523,97.9372
1935.2166,97.9285
1936.1808,97.9619
1937.1450,98.0431
1938.1093,98.1628
1939.0735,98.2956
1940.0377,98.4046
1941.0020,98.4503
1941.9662,98.4079
1942.9304,98.2841
1943.8947,98.1191
1944.8589,97.9653
1945.8231,97.8656
1946.7874,97.8445
1947.7516,97.9113
1948.7158,98.0623
1949.6801,98.2769
1950.6443,98.5138
1951.6085,98.7168
1952.5728,98.8329
1953.5370,98.8365
1954.5012,98.7454
1955.4655,98.6155
1956.4297,98.5144
1957.3939,98.4894
1958.3582,98.5509
1959.3224,98.6781
1960.2866,98.8417
1961.2509,99.0238
1962.2151,99.2208
1963.1793,99.4297
1964.1436,99.6343
1965.1078,99.8042
1966.0720,99.9089
1967.0363,99.9368
1968.0005,99.9023
1968.9647,99.8332
1969.9290,99.7521
1970.8932,99.6686
1971.8574,99.5873
1972.8217,99.5178
1973.7859,99.4752
1974.7501,99.4691
1975.7144,99.4913
1976.6786,99.5163
1977.6428,99.5184
1978.6071,99.4931
1979.5713,99.4613
1980.5355,99.4543
1981.4998,99.4913
1982.4640,99.5657
1983.4282,99.6424
1984.3925,99.6692
1985.3567,99.5983
1986.3209,99.4113
1987.2852,99.1345
1988.2494,98.8337
1989.2136,98.5908
1990.1779,98.4698
1991.1421,98.4865
1992.1063,98.5963
1993.0706,98.7158
1994.0348,98.7678
1994.9990,98.7211
1995.9633,98.6014
1996.9275,98.474
1997.8917,98.4121
1998.8560,98.4619
1999.8202,98.6161
2000.7844,98.8123
2001.7487,98.9606
2002.7129,98.9902
2003.6771,98.8886
2004.6414,98.7137
2005.6056,98.5676
2006.5698,98.5409
2007.5341,98.6564
2008.4983,98.8532
2009.4625,99.0222
2010.4268,99.0706
2011.3910,98.9716
2012.3552,98.7757
2013.3195,98.5868
2014.2837,98.5194
2015.2479,98.6478
2016.2122,98.9619
2017.1764,99.3528
2018.1406,99.6531
2019.1049,99.7205
2020.0691,99.5165
2021.0333,99.1258
2021.9976,98.7073
2022.9618,98.4094
2023.9260,98.2972
2024.8903,98.3313
2025.8545,98.4112
2026.8187,98.4512
2027.7830,98.4362
2028.7472,98.4208
2029.7114,98.4753
2030.6757,98.6232
2031.6399,98.8138
2032.6041,98.9495
2033.5684,98.9479
2034.5326,98.7959
2035.4968,98.5539
2036.4611,98.3122
2037.4253,98.1373
2038.3895,98.0481
2039.3538,98.0285
2040.3180,98.0562
2041.2822,98.1237
2042.2465,98.2379
2043.2107,98.4036
2044.1749,98.604
2045.1392,98.7961
2046.1034,98.9239
2047.0676,98.9456
2048.0320,98.8595
2048.9961,98.7057
2049.9604,98.5425
2050.9246,98.4145
2051.8889,98.3373
2052.8530,98.3022
2053.8174,98.2902
2054.7815,98.2845
2055.7458,98.2758
2056.7100,98.2604
2057.6743,98.2359
2058.6384,98.199
2059.6028,98.1497
2060.5669,98.0958
2061.5313,98.0543
2062.4954,98.0436
2063.4597,98.0722
2064.4238,98.1277
2065.3882,98.1787
2066.3523,98.1892
2067.3167,98.1394
2068.2808,98.0384
2069.2451,97.9224
2070.2092,97.8377
2071.1736,97.8188
2072.1377,97.8702
2073.1021,97.964
2074.0662,98.0533
2075.0305,98.0968
2075.9946,98.0795
2076.9590,98.0173
2077.9231,97.945
2078.8875,97.8932
2079.8516,97.8714
2080.8159,97.8643
2081.7800,97.8452
2082.7444,97.7954
2083.7085,97.7169
2084.6729,97.6316
2085.6370,97.5684
2086.6013,97.5474
2087.5654,97.5711
2088.5298,97.6251
2089.4939,97.6883
2090.4583,97.7439
2091.4224,97.7856
2092.3867,97.817
2093.3508,97.846
2094.3152,97.8781
2095.2793,97.9128
2096.2437,97.9448
2097.2078,97.9671
2098.1721,97.9756
2099.1362,97.97
2100.1006,97.9514
2101.0647,97.9211
2102.0291,97.8805
2102.9932,97.8342
2103.9575,97.7926
2104.9216,97.7701
2105.8860,97.7781
2106.8501,97.8155
2107.8145,97.8656
2108.7786,97.9016
2109.7429,97.9025
2110.7070,97.867
2111.6714,97.817
2112.6355,97.7854
2113.5999,97.7949
2114.5640,97.8431
2115.5283,97.9012
2116.4924,97.9295
2117.4568,97.8999
2118.4209,97.8117
2119.3853,97.6928
2120.3494,97.5875
2121.3137,97.538
2122.2778,97.5682
2123.2422,97.6779
2124.2063,97.8451
2125.1707,98.0344
2126.1348,98.2076
2127.0991,98.3331
2128.0632,98.3924
2129.0276,98.3839
2129.9917,98.3222
2130.9561,98.2347
2131.9202,98.1557
2132.8845,98.1181
2133.8486,98.1435
2134.8130,98.233
2135.7771,98.3654
2136.7415,98.5041
2137.7056,98.6132
2138.6699,98.6713
2139.6340,98.6761
2140.5984,98.639
2141.5625,98.5767
2142.5269,98.506
2143.4910,98.4441
2144.4553,98.4081
2145.4194,98.4092
2146.3838,98.4431
2147.3479,98.4856
2148.3123,98.5031
2149.2764,98.4782
2150.2407,98.431
2151.2048,98.4186
2152.1692,98.5047
2153.1333,98.7161
2154.0977,99.0117
2155.0618,99.2838
2156.0261,99.3975
2156.9902,99.2611
2157.9546,98.9028
2158.9187,98.4876
2159.8831,98.2232
2160.8472,98.2177
2161.8115,98.4258
2162.7756,98.711
2163.7400,98.94
2164.7041,99.0452
2165.6685,99.037
2166.6326,98.9758
2167.5969,98.9232
2168.5610,98.905
2169.5254,98.9053
2170.4895,98.8921
2171.4539,98.8513
2172.4180,98.8055
2173.3823,98.8026
2174.3464,98.8822
2175.3108,99.0415
2176.2749,99.2271
2177.2393,99.3599
2178.2034,99.3754
2179.1677,99.2525
2180.1318,99.0175
2181.0962,98.7296
2182.0603,98.4578
2183.0247,98.2611
2183.9888,98.1738
2184.9531,98.1996
2185.9172,98.3136
2186.8816,98.4728
2187.8457,98.6316
2188.8101,98.756
2189.7742,98.8295
2190.7385,98.8475
2191.7026,98.8081
2192.6670,98.707
2193.6311,98.5432
2194.5955,98.3292
2195.5596,98.0965
2196.5239,97.8895
2197.4880,97.7492
2198.4524,97.6992
2199.4165,97.739
2200.3809,97.8478
2201.3450,97.9944
2202.3093,98.1471
2203.2734,98.2799
2204.2378,98.3756
2205.2019,98.4244
2206.1663,98.4213
2207.1304,98.3639
2208.0947,98.2543
2209.0588,98.1049
2210.0232,97.9466
2210.9873,97.8278
2211.9517,97.8013
2212.9158,97.8971
2213.8801,98.0989
2214.8442,98.3394
2215.8086,98.5259
2216.7727,98.5859
2217.7371,98.5048
2218.7012,98.332
2219.6655,98.1499
2220.6296,98.0294
2221.5940,97.9978
2222.5581,98.0377
2223.5225,98.1096
2224.4866,98.1779
2225.4509,98.2222
2226.4150,98.2329
2227.3794,98.2025
2228.3435,98.1265
2229.3079,98.0139
2230.2720,97.8946
2231.2363,97.8117
2232.2004,97.7994
2233.1648,97.8606
2234.1289,97.9599
2235.0933,98.0406
2236.0574,98.0557
2237.0217,97.993
2237.9858,97.8792
2238.9502,97.7635
2239.9143,97.6914
2240.8787,97.6867
2241.8428,97.7482
2242.8071,97.8565
2243.7712,97.9845
2244.7356,98.1051
2245.6997,98.1945
2246.6641,98.235
2247.6282,98.2184
2248.5925,98.1514
2249.5566,98.0558
2250.5210,97.9622
2251.4851,97.8981
2252.4495,97.8748
2253.4136,97.8825
2254.3779,97.8957
2255.3420,97.8888
2256.3064,97.8513
2257.2705,97.7944
2258.2349,97.7424
2259.1990,97.7175
2260.1633,97.7263
2261.1274,97.758
2262.0918,97.7927
2263.0559,97.8149
2264.0203,97.821
2264.9844,97.8184
2265.9487,97.8175
2266.9128,97.8252
2267.8772,97.8433
2268.8413,97.8701
2269.8057,97.901
2270.7698,97.9276
2271.7341,97.936
2272.6982,97.9112
2273.6626,97.8467
2274.6267,97.752
2275.5911,97.6527
2276.5552,97.5784
2277.5195,97.5477
2278.4836,97.5584
2279.4480,97.5907
2280.4121,97.6197
2281.3765,97.6297
2282.3406,97.6196
2283.3049,97.5997
2284.2690,97.5831
2285.2334,97.5788
2286.1975,97.5898
2287.1619,97.6139
2288.1260,97.6462
2289.0903,97.6795
2290.0544,97.705
2291.0188,97.7143
2291.9829,97.7029
2292.9473,97.673
2293.9114,97.6342
2294.8757,97.6001
2295.8398,97.5824
2296.8042,97.5857
2297.7683,97.6046
2298.7327,97.6268
2299.6968,97.638
2300.6611,97.6302
2301.6252,97.6049
2302.5896,97.573
2303.5537,97.5489
2304.5181,97.5429
2305.4822,97.5561
2306.4465,97.5799
2307.4106,97.6019
2308.3750,97.6132
2309.3391,97.6138
2310.3035,97.612
2311.2676,97.6173
2312.2319,97.6333
2313.1960,97.6543
2314.1604,97.6704
2315.1245,97.6749
2316.0889,97.6686
2317.0530,97.6594
2318.0173,97.6558
2318.9814,97.6606
2319.9458,97.6683
2320.9099,97.6686
2321.8743,97.6544
2322.8384,97.6271
2323.8027,97.5944
2324.7668,97.5641
2325.7312,97.5397
2326.6953,97.5219
2327.6597,97.5129
2328.6238,97.5186
2329.5881,97.5451
2330.5522,97.5902
2331.5166,97.637
2332.4807,97.6584
2333.4451,97.6325
2334.4092,97.5567
2335.3735,97.4514
2336.3376,97.3522
2337.3020,97.2933
2338.2661,97.2908
2339.2305,97.3356
2340.1946,97.4009
2341.1589,97.4594
2342.1230,97.4959
2343.0874,97.51
2344.0515,97.5095
2345.0159,97.5016
2345.9800,97.4891
2346.9443,97.4739
2347.9084,97.4585
2348.8728,97.4468
2349.8369,97.4413
2350.8013,97.4422
2351.7654,97.4464
2352.7297,97.4511
2353.6938,97.4635
2354.6582,97.5087
2355.6223,97.6194
2356.5867,97.8071
2357.5508,98.0353
2358.5151,98.2226
2359.4792,98.2848
2360.4436,98.1917
2361.4077,97.9896
2362.3721,97.7682
2363.3362,97.6066
2364.3005,97.5373
2365.2646,97.545
2366.2290,97.5887
2367.1931,97.6297
2368.1575,97.6466
2369.1216,97.6367
2370.0859,97.6095
2371.0500,97.5791
2372.0144,97.5567
2372.9785,97.5467
2373.9429,97.5459
2374.9070,97.5458
2375.8713,97.5389
2376.8354,97.5227
2377.7998,97.5007
2378.7639,97.4798
2379.7283,97.4657
2380.6924,97.4599
2381.6567,97.4601
2382.6208,97.4628
2383.5852,97.4654
2384.5493,97.4673
2385.5137,97.4694
2386.4778,97.473
2387.4421,97.479
2388.4063,97.4874
2389.3706,97.4974
2390.3347,97.5072
2391.2991,97.5143
2392.2632,97.5164
2393.2275,97.5123
2394.1917,97.5031
2395.1560,97.492
2396.1201,97.4829
2397.0845,97.4787
2398.0486,97.4807
2399.0129,97.4893
2399.9771,97.5044
2400.9414,97.5252
2401.9055,97.5487
2402.8699,97.5695
2403.8340,97.5807
2404.7983,97.5774
2405.7625,97.5603
2406.7268,97.5355
2407.6909,97.5117
2408.6553,97.4952
2409.6194,97.4873
2410.5837,97.4846
2411.5479,97.4834
2412.5122,97.4829
2413.4763,97.4856
2414.4407,97.4953
2415.4048,97.5139
2416.3691,97.5395
2417.3333,97.5674
2418.2976,97.5914
2419.2617,97.6059
2420.2261,97.6063
2421.1902,97.5901
2422.1545,97.5588
2423.1187,97.5189
2424.0830,97.4814
2425.0471,97.4589
2426.0115,97.4594
2426.9756,97.4824
2427.9399,97.5179
2428.9041,97.5515
2429.8684,97.5703
2430.8325,97.5687
2431.7969,97.5492
2432.7610,97.5199
2433.7253,97.4904
2434.6895,97.4678
2435.6538,97.4558
2436.6179,97.455
2437.5823,97.4633
2438.5464,97.4773
2439.5107,97.4935
2440.4749,97.5089
2441.4392,97.5207
2442.4033,97.5258
2443.3677,97.52
2444.3318,97.4993
2445.2961,97.4638
2446.2603,97.4202
2447.2246,97.3818
2448.1887,97.3637
2449.1531,97.375
2450.1172,97.413
2451.0815,97.4648
2452.0457,97.5131
2453.0100,97.5453
2453.9741,97.5572
2454.9385,97.5517
2455.9026,97.5346
2456.8669,97.5109
2457.8311,97.4856
2458.7954,97.4656
2459.7595,97.4592
2460.7239,97.473
2461.6880,97.5061
2462.6523,97.5479
2463.6165,97.582
2464.5808,97.5933
2465.5449,97.5766
2466.5093,97.5383
2467.4734,97.4928
2468.4377,97.4548
2469.4019,97.4334
2470.3662,97.4293
2471.3303,97.4377
2472.2947,97.4515
2473.2588,97.4655
2474.2231,97.4773
2475.1873,97.4866
2476.1516,97.4937
2477.1157,97.4981
2478.0801,97.4987
2479.0442,97.4953
2480.0085,97.4901
2480.9727,97.4875
2481.9370,97.4922
2482.9011,97.5061
2483.8655,97.5264
2484.8296,97.5459
2485.7939,97.5575
2486.7581,97.5578
2487.7224,97.5495
2488.6865,97.5392
2489.6509,97.5333
2490.6150,97.5339
2491.5793,97.5384
2492.5435,97.5423
2493.5078,97.5428
2494.4719,97.5408
2495.4363,97.5395
2496.4004,97.541
2497.3647,97.5436
2498.3289,97.543
2499.2932,97.5353
2500.2573,97.5206
2501.2217,97.503
2502.1858,97.4872
2503.1501,97.4752
2504.1143,97.4655
2505.0786,97.4556
2506.0427,97.4464
2507.0071,97.4427
2507.9712,97.4515
2508.9355,97.4766
2509.8997,97.5155
2510.8640,97.5604
2511.8281,97.6018
2512.7925,97.6313
2513.7566,97.6427
2514.7209,97.631
2515.6851,97.5943
2516.6494,97.5362
2517.6135,97.4696
2518.5779,97.4139
2519.5420,97.3877
2520.5063,97.3979
2521.4705,97.4352
2522.4348,97.4786
2523.3989,97.5071
2524.3633,97.5108
2525.3274,97.4941
2526.2917,97.4695
2527.2559,97.4475
2528.2202,97.4307
2529.1843,97.4153
2530.1487,97.3976
2531.1128,97.3782
2532.0771,97.3624
2533.0413,97.3555
2534.0056,97.3592
2534.9697,97.3708
2535.9341,97.3865
2536.8982,97.404
2537.8625,97.4228
2538.8267,97.4428
2539.7910,97.4621
2540.7551,97.4783
2541.7195,97.4895
2542.6836,97.4967
2543.6479,97.5024
2544.6121,97.509
2545.5764,97.5177
2546.5405,97.5289
2547.5049,97.5428
2548.4690,97.5601
2549.4333,97.5801
2550.3975,97.5986
2551.3618,97.6086
2552.3259,97.603
2553.2903,97.5793
2554.2544,97.5428
2555.2188,97.505
2556.1829,97.4785
2557.1472,97.4714
2558.1113,97.4835
2559.0757,97.5069
2560.0398,97.5301
2561.0042,97.5434
2561.9683,97.5418
2562.9326,97.5267
2563.8967,97.5038
2564.8611,97.4798
2565.8252,97.4593
2566.7896,97.4437
2567.7537,97.4318
2568.7180,97.4223
2569.6821,97.4158
2570.6465,97.4152
2571.6106,97.4241
2572.5750,97.4434
2573.5391,97.4692
2574.5034,97.4938
2575.4675,97.508
2576.4319,97.5059
2577.3960,97.4879
2578.3604,97.4612
2579.3245,97.4377
2580.2888,97.4287
2581.2529,97.4399
2582.2173,97.4686
2583.1814,97.5044
2584.1458,97.5333
2585.1099,97.5444
2586.0742,97.5339
2587.0383,97.5057
2588.0027,97.468
2588.9668,97.4289
2589.9312,97.3944
2590.8953,97.3687
2591.8596,97.3552
2592.8237,97.357
2593.7881,97.3742
2594.7522,97.4017
2595.7166,97.4301
2596.6807,97.4491
2597.6450,97.4538
2598.6091,97.447
2599.5735,97.4374
2600.5376,97.4338
2601.5020,97.4397
2602.4661,97.4516
2603.4304,97.4616
2604.3945,97.4629
2605.3589,97.4526
2606.3230,97.4327
2607.2874,97.408
2608.2515,97.3834
2609.2158,97.3623
2610.1799,97.3462
2611.1443,97.3347
2612.1084,97.3266
2613.0728,97.3204
2614.0369,97.3155
2615.0012,97.3127
2615.9653,97.3138
2616.9297,97.32
2617.8938,97.3314
2618.8582,97.3453
2619.8223,97.3578
2620.7866,97.3645
2621.7507,97.3623
2622.7151,97.3499
2623.6792,97.3292
2624.6436,97.3049
2625.6077,97.2836
2626.5720,97.2722
2627.5361,97.2744
2628.5005,97.2887
2629.4646,97.3085
2630.4290,97.325
2631.3931,97.3314
2632.3574,97.3262
2633.3215,97.3127
2634.2859,97.2967
2635.2500,97.2828
2636.2144,97.2727
2637.1785,97.2666
2638.1428,97.2641
2639.1069,97.2662
2640.0713,97.2736
2641.0354,97.2856
2641.9998,97.2994
2642.9639,97.311
2643.9282,97.3175
2644.8923,97.3185
2645.8567,97.3158
2646.8208,97.3118
2647.7852,97.308
2648.7493,97.3049
2649.7136,97.3023
2650.6777,97.3008
2651.6421,97.3012
2652.6062,97.3034
2653.5706,97.3058
2654.5347,97.3054
2655.4990,97.2994
2656.4631,97.2865
2657.4275,97.2678
2658.3916,97.2463
2659.3560,97.2256
2660.3201,97.2085
2661.2844,97.1968
2662.2485,97.1913
2663.2129,97.192
2664.1770,97.1978
2665.1414,97.2071
2666.1055,97.2175
2667.0698,97.2265
2668.0339,97.2324
2668.9983,97.2339
2669.9624,97.2309
2670.9268,97.2236
2671.8909,97.2132
2672.8552,97.2015
2673.8193,97.1915
2674.7837,97.1857
2675.7478,97.1858
2676.7122,97.1909
2677.6763,97.1983
2678.6406,97.2046
2679.6047,97.2071
2680.5691,97.2056
2681.5332,97.202
2682.4976,97.1987
2683.4617,97.1979
2684.4260,97.2002
2685.3901,97.205
2686.3545,97.2113
2687.3186,97.2184
2688.2830,97.2257
2689.2471,97.2325
2690.2114,97.2372
2691.1755,97.2376
2692.1399,97.2322
2693.1040,97.2217
2694.0684,97.2098
2695.0325,97.2021
2695.9968,97.2032
2696.9609,97.2144
2697.9253,97.2325
2698.8894,97.2509
2699.8538,97.2635
2700.8179,97.2669
2701.7822,97.2624
2702.7463,97.2536
2703.7107,97.2441
2704.6748,97.2363
2705.6392,97.2304
2706.6033,97.2264
2707.5676,97.2244
2708.5317,97.2246
2709.4961,97.2265
2710.4602,97.2293
2711.4246,97.2319
2712.3887,97.2346
2713.3530,97.2392
2714.3171,97.2468
2715.2815,97.2568
2716.2456,97.2661
2717.2100,97.2701
2718.1741,97.266
2719.1384,97.2542
2720.1025,97.2383
2721.0669,97.2227
2722.0310,97.2102
2722.9954,97.2013
2723.9595,97.1956
2724.9238,97.1935
2725.8879,97.1967
2726.8523,97.2073
2727.8164,97.225
2728.7808,97.2461
2729.7449,97.2642
2730.7092,97.2728
2731.6733,97.2691
2732.6377,97.2552
2733.6018,97.2377
2734.5662,97.2241
2735.5303,97.2196
2736.4946,97.2252
2737.4587,97.2372
2738.4231,97.2495
2739.3872,97.257
2740.3516,97.2571
2741.3157,97.2514
2742.2800,97.2435
2743.2441,97.2369
2744.2085,97.2333
2745.1726,97.2318
2746.1370,97.2305
2747.1011,97.2285
2748.0654,97.2264
2749.0295,97.2258
2749.9939,97.2275
2750.9580,97.2306
2751.9224,97.2331
2752.8865,97.2334
2753.8508,97.2314
2754.8149,97.229
2755.7793,97.2281
2756.7434,97.2295
2757.7078,97.2324
2758.6719,97.2347
2759.6362,97.2355
2760.6003,97.2349
2761.5647,97.2344
2762.5288,97.2345
2763.4932,97.2349
2764.4573,97.2338
2765.4216,97.2299
2766.3857,97.2234
2767.3501,97.216
2768.3142,97.21
2769.2786,97.2071
2770.2427,97.2075
2771.2070,97.2102
2772.1711,97.2141
2773.1355,97.2181
2774.0996,97.2215
2775.0640,97.2235
2776.0281,97.2231
2776.9924,97.2196
2777.9565,97.214
2778.9209,97.2089
2779.8850,97.2083
2780.8494,97.2152
2781.8135,97.2301
2782.7778,97.2494
2783.7419,97.2673
2784.7063,97.2778
2785.6704,97.2784
2786.6348,97.2706
2787.5989,97.2591
2788.5632,97.2489
2789.5273,97.2427
2790.4917,97.2401
2791.4558,97.2384
2792.4202,97.2347
2793.3843,97.228
2794.3486,97.2195
2795.3127,97.2117
2796.2771,97.2069
2797.2412,97.2057
2798.2056,97.207
2799.1697,97.2089
2800.1340,97.2097
2801.0981,97.2089
2802.0625,97.2075
2803.0266,97.207
2803.9910,97.2083
2804.9551,97.2111
2805.9194,97.2144
2806.8835,97.2175
2807.8479,97.2199
2808.8120,97.2221
2809.7764,97.224
2810.7405,97.2248
2811.7048,97.2234
2812.6689,97.2189
2813.6333,97.2117
2814.5974,97.2029
2815.5618,97.1938
2816.5259,97.1848
2817.4902,97.1765
2818.4543,97.1696
2819.4187,97.166
2820.3828,97.1676
2821.3472,97.174
2822.3113,97.1817
2823.2756,97.1852
2824.2397,97.1794
2825.2041,97.1637
2826.1682,97.1416
2827.1326,97.1197
2828.0967,97.1033
2829.0610,97.0944
2830.0251,97.0918
2830.9895,97.0925
2831.9536,97.0942
2832.9180,97.0954
2833.8821,97.0952
2834.8464,97.0916
2835.8105,97.0826
2836.7749,97.0667
2837.7390,97.0444
2838.7034,97.0182
2839.6675,96.9911
2840.6318,96.9655
2841.5959,96.9425
2842.5603,96.9213
2843.5244,96.9002
2844.4888,96.8756
2845.4529,96.8435
2846.4172,96.8004
2847.3813,96.7458
2848.3457,96.684
2849.3098,96.6241
2850.2742,96.5769
2851.2383,96.55
2852.2026,96.5444
2853.1667,96.5542
2854.1311,96.5704
2855.0952,96.5854
2856.0596,96.5974
2857.0237,96.6097
2857.9880,96.6279
2858.9521,96.6553
2859.9165,96.69
2860.8806,96.7261
2861.8450,96.7557
2862.8091,96.7732
2863.7734,96.7773
2864.7375,96.7716
2865.7019,96.7629
2866.6660,96.7586
2867.6304,96.7647
2868.5945,96.7837
2869.5588,96.8146
2870.5229,96.8536
2871.4873,96.8954
2872.4514,96.9354
2873.4158,96.971
2874.3799,97.0023
2875.3442,97.0306
2876.3083,97.0567
2877.2727,97.0794
2878.2368,97.0955
2879.2012,97.1017
2880.1653,97.0968
2881.1296,97.0834
2882.0938,97.0668
2883.0581,97.0521
2884.0222,97.041
2884.9866,97.031
2885.9507,97.0176
2886.9150,96.998
2887.8792,96.9736
2888.8435,96.9495
2889.8076,96.9309
2890.7720,96.9197
2891.7361,96.913
2892.7004,96.9055
2893.6646,96.8933
2894.6289,96.8768
2895.5930,96.8597
2896.5574,96.8464
2897.5215,96.838
2898.4858,96.8318
2899.4500,96.8234
2900.4143,96.8098
2901.3784,96.7913
2902.3428,96.7713
2903.3069,96.7533
2904.2712,96.7389
2905.2354,96.727
2906.1997,96.715
2907.1638,96.7005
2908.1282,96.6827
2909.0923,96.6614
2910.0566,96.6367
2911.0208,96.6081
2911.9851,96.5756
2912.9492,96.5406
2913.9136,96.5061
2914.8777,96.4765
2915.8420,96.4551
2916.8062,96.443
2917.7705,96.438
2918.7346,96.4362
2919.6990,96.4339
2920.6631,96.4291
2921.6274,96.4225
2922.5916,96.4163
2923.5559,96.4134
2924.5200,96.4156
2925.4844,96.424
2926.4485,96.4386
2927.4128,96.4594
2928.3770,96.4867
2929.3413,96.5199
2930.3054,96.557
2931.2698,96.5944
2932.2339,96.6266
2933.1982,96.6485
2934.1624,96.6567
2935.1267,96.6504
2936.0908,96.6314
2937.0552,96.602
2938.0193,96.5637
2938.9836,96.5167
2939.9478,96.4619
2940.9121,96.4024
2941.8762,96.3443
2942.8406,96.2956
2943.8047,96.2632
2944.7690,96.2505
2945.7332,96.2568
2946.6975,96.2794
2947.6616,96.3146
2948.6260,96.3594
2949.5901,96.411
2950.5544,96.4656
2951.5186,96.5184
2952.4829,96.5644
2953.4470,96.6
2954.4114,96.6234
2955.3755,96.6341
2956.3398,96.6325
2957.3040,96.6195
2958.2683,96.5992
2959.2324,96.5799
2960.1968,96.5749
2961.1609,96.5984
2962.1252,96.6614
2963.0894,96.7656
2964.0537,96.9023
2965.0178,97.054
2965.9822,97.1997
2966.9463,97.3221
2967.9106,97.4117
2968.8748,97.4689
2969.8391,97.5014
2970.8032,97.5196
2971.7676,97.5323
2972.7317,97.5438
2973.6960,97.5536
2974.6602,97.5584
2975.6245,97.5553
2976.5886,97.5434
2977.5530,97.5249
2978.5171,97.5043
2979.4814,97.4864
2980.4456,97.4751
2981.4099,97.472
2982.3740,97.4768
2983.3384,97.4874
2984.3025,97.5012
2985.2668,97.5149
2986.2310,97.5254
2987.1953,97.5302
2988.1594,97.5281
2989.1238,97.5205
2990.0879,97.5111
2991.0522,97.5043
2992.0164,97.503
2992.9807,97.5065
2993.9448,97.5108
2994.9092,97.5111
2995.8733,97.505
2996.8376,97.4952
2997.8018,97.4872
2998.7661,97.4866
2999.7302,97.4945
3000.6946,97.5072
3001.6587,97.5183
3002.6230,97.5229
3003.5872,97.5209
3004.5515,97.5162
3005.5156,97.513
3006.4800,97.5129
3007.4441,97.5135
3008.4084,97.5109
3009.3726,97.503
3010.3369,97.491
3011.3010,97.4788
3012.2654,97.4699
3013.2295,97.4647
3014.1938,97.4608
3015.1580,97.455
3016.1223,97.4459
3017.0864,97.435
3018.0508,97.4257
3019.0149,97.4212
3019.9792,97.4223
3020.9434,97.4269
3021.9077,97.4306
3022.8718,97.4292
3023.8362,97.4208
3024.8003,97.4075
3025.7646,97.3949
3026.7288,97.3894
3027.6931,97.3946
3028.6572,97.4083
3029.6216,97.4227
3030.5857,97.4289
3031.5500,97.4219
3032.5142,97.4043
3033.4785,97.3847
3034.4426,97.3718
3035.4070,97.3695
3036.3711,97.374
3037.3354,97.3777
3038.2996,97.3743
3039.2639,97.3639
3040.2280,97.3523
3041.1924,97.3472
3042.1565,97.3532
3043.1208,97.3687
3044.0850,97.3874
3045.0493,97.4022
3046.0134,97.409
3046.9778,97.4083
3047.9419,97.4048
3048.9063,97.4035
3049.8704,97.4071
3050.8347,97.4141
3051.7988,97.4198
3052.7632,97.4194
3053.7273,97.4108
3054.6917,97.396
3055.6558,97.3799
3056.6201,97.3676
3057.5842,97.3621
3058.5486,97.3629
3059.5127,97.3684
3060.4771,97.3771
3061.4412,97.3882
3062.4055,97.4004
3063.3696,97.4101
3064.3340,97.4124
3065.2981,97.4037
3066.2625,97.3845
3067.2266,97.3607
3068.1909,97.3402
3069.1550,97.3288
3070.1194,97.3277
3071.0835,97.3335
3072.0479,97.3419
3073.0120,97.3505
3073.9763,97.3591
3074.9404,97.3682
3075.9048,97.3767
3076.8689,97.3811
3077.8333,97.3778
3078.7974,97.3659
3079.7617,97.3483
3080.7258,97.3301
3081.6902,97.3153
3082.6543,97.3045
3083.6187,97.2949
3084.5828,97.2829
3085.5471,97.2671
3086.5112,97.2495
3087.4756,97.234
3088.4397,97.2242
3089.4041,97.2207
3090.3682,97.2216
3091.3325,97.2236
3092.2966,97.2244
3093.2610,97.2245
3094.2251,97.2267
3095.1895,97.2343
3096.1536,97.2498
3097.1179,97.2733
3098.0820,97.3026
3099.0464,97.3347
3100.0105,97.3659
3100.9749,97.3934
3101.9390,97.4152
3102.9033,97.4306
3103.8674,97.4398
3104.8318,97.4431
3105.7959,97.4405
3106.7603,97.4317
3107.7244,97.4172
3108.6887,97.3989
3109.6528,97.3808
3110.6172,97.3669
3111.5813,97.3598
3112.5457,97.3592
3113.5098,97.3624
3114.4741,97.3663
3115.4382,97.3692
3116.4026,97.3709
3117.3667,97.3716
3118.3311,97.3708
3119.2952,97.3671
3120.2595,97.3602
3121.2236,97.3521
3122.1880,97.3477
3123.1521,97.3517
3124.1165,97.3645
3125.0806,97.3809
3126.0449,97.3905
3127.0090,97.3838
3127.9734,97.3574
3128.9375,97.3169
3129.9019,97.2752
3130.8660,97.2469
3131.8303,97.2415
3132.7944,97.2591
3133.7588,97.2906
3134.7229,97.3229
3135.6873,97.3456
3136.6514,97.3552
3137.6157,97.3549
3138.5798,97.3503
3139.5442,97.345
3140.5083,97.3391
3141.4727,97.3315
3142.4368,97.3228
3143.4011,97.3166
3144.3652,97.3169
3145.3296,97.3243
3146.2937,97.3343
3147.2581,97.3399
3148.2222,97.3365
3149.1865,97.3262
3150.1506,97.3167
3151.1150,97.3159
3152.0791,97.3269
3153.0435,97.3454
3154.0076,97.3634
3154.9719,97.3743
3155.9360,97.3767
3156.9004,97.3738
3157.8645,97.3696
3158.8289,97.3659
3159.7930,97.3614
3160.7573,97.3544
3161.7214,97.3444
3162.6858,97.3333
3163.6499,97.3234
3164.6143,97.3153
3165.5784,97.307
3166.5427,97.296
3167.5068,97.281
3168.4712,97.2642
3169.4353,97.25
3170.3997,97.243
3171.3638,97.2456
3172.3281,97.2561
3173.2922,97.2699
3174.2566,97.2817
3175.2207,97.2879
3176.1851,97.2885
3177.1492,97.2856
3178.1135,97.2823
3179.0776,97.2797
3180.0420,97.2764
3181.0061,97.27
3181.9705,97.2586
3182.9346,97.2428
3183.8989,97.2253
3184.8630,97.209
3185.8274,97.1955
3186.7915,97.1838
3187.7559,97.172
3188.7200,97.1584
3189.6843,97.1433
3190.6484,97.1286
3191.6128,97.1169
3192.5769,97.1106
3193.5413,97.1103
3194.5054,97.1142
3195.4697,97.1184
3196.4338,97.1173
3197.3982,97.1058
3198.3623,97.0819
3199.3267,97.0489
3200.2908,97.0144
3201.2551,96.9866
3202.2192,96.9707
3203.1836,96.9656
3204.1477,96.965
3205.1121,96.9606
3206.0762,96.9457
3207.0405,96.9184
3208.0046,96.8802
3208.9690,96.8353
3209.9331,96.7877
3210.8975,96.7407
3211.8616,96.6964
3212.8259,96.6562
3213.7900,96.6199
3214.7544,96.5861
3215.7185,96.5531
3216.6829,96.5199
3217.6470,96.4873
3218.6113,96.4576
3219.5754,96.433
3220.5398,96.4147
3221.5039,96.4022
3222.4683,96.395
3223.4324,96.3941
3224.3967,96.4024
3225.3608,96.4234
3226.3252,96.4589
3227.2893,96.5065
3228.2537,96.5605
3229.2178,96.6132
3230.1821,96.6587
3231.1462,96.695
3232.1106,96.7233
3233.0747,96.7459
3234.0391,96.7635
3235.0032,96.7736
3235.9675,96.7714
3236.9316,96.7529
3237.8960,96.7179
3238.8601,96.6717
3239.8245,96.6238
3240.7886,96.584
3241.7529,96.5593
3242.7170,96.5518
3243.6814,96.5593
3244.6455,96.5775
3245.6099,96.6025
3246.5740,96.6319
3247.5383,96.6653
3248.5024,96.7024
3249.4668,96.7425
3250.4309,96.7841
3251.3953,96.8257
3252.3594,96.8667
3253.3237,96.9074
3254.2878,96.949
3255.2522,96.9921
3256.2163,97.0363
3257.1807,97.0796
3258.1448,97.1193
3259.1091,97.1527
3260.0732,97.1785
3261.0376,97.1969
3262.0017,97.2097
3262.9661,97.2184
3263.9302,97.2246
3264.8945,97.2295
3265.8586,97.2341
3266.8230,97.2401
3267.7871,97.249
3268.7515,97.2614
3269.7156,97.2757
3270.6799,97.289
3271.6440,97.298
3272.6084,97.3005
3273.5725,97.2968
3274.5369,97.2881
3275.5010,97.2759
3276.4653,97.2607
3277.4294,97.2432
3278.3938,97.2252
3279.3579,97.2107
3280.3223,97.2043
3281.2864,97.2084
3282.2507,97.2211
3283.2148,97.2366
3284.1792,97.248
3285.1433,97.2511
3286.1077,97.2463
3287.0718,97.2377
3288.0361,97.2295
3289.0002,97.2234
3289.9646,97.2179
3290.9287,97.2098
3291.8931,97.1962
3292.8572,97.176
3293.8215,97.1501
3294.7856,97.1204
3295.7500,97.0893
3296.7141,97.0599
3297.6785,97.036
3298.6426,97.0206
3299.6069,97.0144
3300.5710,97.0147
3301.5354,97.0155
3302.4995,97.0101
3303.4639,96.9943
3304.4280,96.9682
3305.3923,96.9358
3306.3564,96.903
3307.3208,96.8738
3308.2849,96.8493
3309.2493,96.8274
3310.2134,96.8047
3311.1777,96.7796
3312.1418,96.7526
3313.1062,96.7263
3314.0703,96.7025
3315.0347,96.6805
3315.9988,96.6567
3316.9631,96.6258
3317.9272,96.5842
3318.8916,96.5326
3319.8557,96.4759
3320.8201,96.4215
3321.7842,96.3759
3322.7485,96.3415
3323.7126,96.316
3324.6770,96.2935
3325.6411,96.2682
3326.6055,96.2365
3327.5696,96.1986
3328.5339,96.1578
3329.4980,96.1186
3330.4624,96.0848
3331.4265,96.0585
3332.3909,96.0396
3333.3550,96.0264
3334.3193,96.0173
3335.2834,96.012
3336.2478,96.0122
3337.2119,96.0204
3338.1763,96.0387
3339.1404,96.0666
3340.1047,96.1009
3341.0688,96.1371
3342.0332,96.1709
3342.9973,96.1998
3343.9617,96.223
3344.9258,96.2403
3345.8901,96.2518
3346.8542,96.2585
3347.8186,96.2633
3348.7827,96.2719
3349.7471,96.2918
3350.7112,96.3298
3351.6755,96.3899
3352.6396,96.4715
3353.6040,96.5696
3354.5681,96.6765
3355.5325,96.7836
3356.4966,96.8838
3357.4609,96.973
3358.4250,97.0503
3359.3894,97.1174
3360.3535,97.1767
3361.3179,97.2293
3362.2820,97.274
3363.2463,97.3077
3364.2104,97.3279
3365.1748,97.3356
3366.1389,97.3372
3367.1033,97.342
3368.0674,97.3583
3369.0317,97.3888
3369.9958,97.4283
3370.9602,97.4656
3371.9243,97.4888
3372.8887,97.4916
3373.8528,97.4761
3374.8171,97.4518
3375.7813,97.4311
3376.7456,97.4224
3377.7097,97.427
3378.6741,97.4393
3379.6382,97.451
3380.6025,97.4557
3381.5667,97.4515
3382.5310,97.4408
3383.4951,97.4291
3384.4595,97.4207
3385.4236,97.4176
3386.3879,97.4184
3387.3521,97.4191
3388.3164,97.4154
3389.2805,97.4049
3390.2449,97.3876
3391.2090,97.3659
3392.1733,97.3424
3393.1375,97.3185
3394.1018,97.2935
3395.0659,97.2664
3396.0303,97.238
3396.9944,97.2117
3397.9587,97.1914
3398.9229,97.1786
3399.8872,97.1709
3400.8513,97.1622
3401.8157,97.1474
3402.7798,97.1253
3403.7441,97.0995
3404.7083,97.0754
3405.6726,97.0559
3406.6367,97.0391
3407.6011,97.0189
3408.5652,96.9889
3409.5295,96.9461
3410.4937,96.8923
3411.4580,96.8335
3412.4221,96.7762
3413.3865,96.7251
3414.3506,96.6813
3415.3149,96.6421
3416.2791,96.6021
3417.2434,96.5558
3418.2075,96.4993
3419.1719,96.432
3420.1360,96.3559
3421.1003,96.2737
3422.0645,96.1861
3423.0288,96.0917
3423.9929,95.9889
3424.9573,95.8793
3425.9214,95.7688
3426.8857,95.6655
3427.8499,95.5751
3428.8142,95.4975
3429.7783,95.4267
3430.7427,95.3558
3431.7068,95.2836
3432.6711,95.2179
3433.6353,95.1725
3434.5996,95.1618
3435.5637,95.1943
3436.5281,95.2711
3437.4922,95.3878
3438.4565,95.5384
3439.4207,95.7176
3440.3850,95.92
3441.3491,96.1391
3442.3135,96.3664
3443.2776,96.5922
3444.2419,96.807
3445.2061,97.002
3446.1704,97.17
3447.1345,97.3075
3448.0989,97.4163
3449.0630,97.5029
3450.0273,97.576
3450.9915,97.6422
3451.9558,97.7042
3452.9199,97.7609
3453.8843,97.8098
3454.8484,97.8497
3455.8127,97.8817
3456.7769,97.9076
3457.7412,97.9286
3458.7053,97.9438
3459.6697,97.9514
3460.6338,97.9502
3461.5981,97.9408
3462.5623,97.926
3463.5266,97.9097
3464.4907,97.8961
3465.4551,97.8883
3466.4192,97.8881
3467.3835,97.8943
3468.3477,97.9025
3469.3120,97.9058
3470.2761,97.8985
3471.2405,97.8796
3472.2046,97.8546
3473.1689,97.8331
3474.1331,97.8241
3475.0974,97.831
3476.0615,97.8496
3477.0259,97.8719
3477.9900,97.89
3478.9543,97.8994
3479.9185,97.8995
3480.8828,97.8918
3481.8469,97.8794
3482.8113,97.8661
3483.7754,97.8564
3484.7397,97.8544
3485.7039,97.8619
3486.6682,97.8764
3487.6323,97.8912
3488.5967,97.899
3489.5608,97.8959
3490.5251,97.8842
3491.4893,97.87
3492.4536,97.8594
3493.4177,97.854
3494.3821,97.8513
3495.3462,97.8467
3496.3105,97.8382
3497.2747,97.828
3498.2390,97.821
3499.2031,97.8208
3500.1675,97.8271
3501.1316,97.8362
3502.0959,97.844
3503.0601,97.8494
3504.0244,97.8558
3504.9885,97.8669
3505.9529,97.8832
3506.9170,97.8992
3507.8813,97.9056
3508.8455,97.8939
3509.8098,97.8623
3510.7739,97.8184
3511.7383,97.7754
3512.7024,97.7458
3513.6667,97.7361
3514.6309,97.7461
3515.5952,97.7702
3516.5593,97.7998
3517.5237,97.8256
3518.4878,97.8407
3519.4521,97.8426
3520.4163,97.8344
3521.3806,97.8239
3522.3447,97.821
3523.3091,97.8329
3524.2732,97.8599
3525.2375,97.8939
3526.2017,97.9216
3527.1660,97.9306
3528.1301,97.9157
3529.0945,97.8812
3530.0586,97.8386
3531.0229,97.8005
3531.9871,97.7744
3532.9514,97.7621
3533.9155,97.76
3534.8799,97.7625
3535.8440,97.7636
3536.8083,97.76
3537.7725,97.7515
3538.7368,97.7407
3539.7009,97.7318
3540.6653,97.7288
3541.6294,97.7348
3542.5938,97.7501
3543.5579,97.7706
3544.5222,97.7885
3545.4863,97.7962
3546.4507,97.7928
3547.4148,97.7861
3548.3792,97.7866
3549.3433,97.8005
3550.3076,97.825
3551.2717,97.8486
3552.2361,97.8577
3553.2002,97.8455
3554.1646,97.8185
3555.1287,97.7914
3556.0930,97.7768
3557.0571,97.7785
3558.0215,97.7903
3558.9856,97.8004
3559.9500,97.7989
3560.9141,97.7841
3561.8784,97.7622
3562.8425,97.7427
3563.8069,97.7339
3564.7710,97.7398
3565.7354,97.7581
3566.6995,97.7795
3567.6638,97.7937
3568.6279,97.7979
3569.5923,97.797
3570.5564,97.7973
3571.5208,97.8028
3572.4849,97.8133
3573.4492,97.8251
3574.4133,97.8324
3575.3777,97.8303
3576.3418,97.8187
3577.3062,97.8025
3578.2703,97.7885
3579.2346,97.7814
3580.1987,97.7814
3581.1631,97.786
3582.1272,97.7918
3583.0916,97.7973
3584.0557,97.8016
3585.0200,97.8026
3585.9841,97.7949
3586.9485,97.7743
3587.9126,97.744
3588.8770,97.7155
3589.8411,97.6992
3590.8054,97.6983
3591.7695,97.7094
3592.7339,97.7252
3593.6980,97.7369
3594.6624,97.7401
3595.6265,97.7376
3596.5908,97.7375
3597.5549,97.7456
3598.5193,97.7612
3599.4834,97.778
3600.4478,97.7901
3601.4119,97.7972
3602.3762,97.8046
3603.3403,97.8185
3604.3047,97.8405
3605.2688,97.8663
3606.2332,97.8869
3607.1973,97.8933
3608.1616,97.8831
3609.1257,97.8621
3610.0901,97.8386
3611.0542,97.8167
3612.0186,97.7958
3612.9827,97.7754
3613.9470,97.7586
3614.9111,97.7528
3615.8755,97.7656
3616.8396,97.7994
3617.8040,97.8469
3618.7681,97.8897
3619.7324,97.908
3620.6965,97.8971
3621.6609,97.87
3622.6250,97.8448
3623.5894,97.8346
3624.5535,97.8454
3625.5178,97.8764
3626.4819,97.9168
3627.4463,97.942
3628.4104,97.9251
3629.3748,97.8679
3630.3389,97.8041
3631.3032,97.7632
3632.2673,97.7537
3633.2317,97.7709
3634.1958,97.8049
3635.1602,97.8439
3636.1243,97.8769
3637.0886,97.8971
3638.0527,97.9034
3639.0171,97.8995
3639.9812,97.8907
3640.9456,97.881
3641.9097,97.8717
3642.8740,97.8623
3643.8381,97.8521
3644.8025,97.8425
3645.7666,97.8378
3646.7310,97.8437
3647.6951,97.8617
3648.6594,97.8796
3649.6235,97.8806
3650.5879,97.8647
3651.5520,97.8455
3652.5164,97.833
3653.4805,97.8297
3654.4448,97.8318
3655.4089,97.8322
3656.3733,97.825
3657.3374,97.8123
3658.3018,97.803
3659.2659,97.8054
3660.2302,97.8206
3661.1943,97.8428
3662.1587,97.8624
3663.1228,97.8719
3664.0872,97.8706
3665.0513,97.8633
3666.0156,97.8569
3666.9797,97.8552
3667.9441,97.8571
3668.9082,97.8575
3669.8726,97.8528
3670.8367,97.8471
3671.8010,97.8486
3672.7651,97.8626
3673.7295,97.8872
3674.6936,97.9105
3675.6580,97.9146
3676.6221,97.8931
3677.5864,97.8573
3678.5505,97.8223
3679.5149,97.7957
3680.4790,97.7791
3681.4434,97.7716
3682.4075,97.7725
3683.3718,97.781
3684.3359,97.7964
3685.3003,97.8178
3686.2644,97.8438
3687.2288,97.8701
3688.1929,97.8889
3689.1572,97.8917
3690.1213,97.878
3691.0857,97.8566
3692.0498,97.8369
3693.0142,97.8233
3693.9783,97.8158
3694.9426,97.813
3695.9067,97.8127
3696.8711,97.8138
3697.8352,97.8165
3698.7996,97.8217
3699.7637,97.8294
3700.7280,97.8359
3701.6921,97.8355
3702.6565,97.8256
3703.6206,97.8109
3704.5850,97.8015
3705.5491,97.8079
3706.5134,97.8377
3707.4775,97.8934
3708.4419,97.9682
3709.4060,98.0386
3710.3704,98.0682
3711.3345,98.0357
3712.2988,97.9609
3713.2629,97.8835
3714.2273,97.8274
3715.1914,97.7971
3716.1558,97.7872
3717.1199,97.789
3718.0842,97.7942
3719.0483,97.7972
3720.0127,97.7981
3720.9768,97.8024
3721.9412,97.8161
3722.9053,97.8389
3723.8696,97.8617
3724.8337,97.8714
3725.7981,97.8625
3726.7622,97.842
3727.7266,97.8245
3728.6907,97.8226
3729.6550,97.8424
3730.6191,97.8822
3731.5835,97.9333
3732.5476,97.9802
3733.5120,98.0035
3734.4761,97.9894
3735.4404,97.9432
3736.4045,97.886
3737.3689,97.8355
3738.3330,97.7987
3739.2974,97.7776
3740.2615,97.7748
3741.2258,97.7951
3742.1899,97.8419
3743.1543,97.9072
3744.1184,97.9648
3745.0828,97.9865
3746.0469,97.9691
3747.0112,97.9303
3747.9753,97.8892
3748.9397,97.8593
3749.9038,97.8468
3750.8682,97.8473
3751.8323,97.8469
3752.7966,97.8365
3753.7607,97.8178
3754.7251,97.7967
3755.6892,97.7792
3756.6536,97.7697
3757.6177,97.7701
3758.5820,97.777
3759.5461,97.7831
3760.5105,97.7826
3761.4746,97.7743
3762.4390,97.7618
3763.4031,97.7499
3764.3674,97.7431
3765.3315,97.7429
3766.2959,97.7474
3767.2600,97.7511
3768.2244,97.7486
3769.1885,97.7381
3770.1528,97.7232
3771.1169,97.7105
3772.0813,97.7049
3773.0454,97.7079
3774.0098,97.7184
3774.9739,97.7349
3775.9382,97.7559
3776.9023,97.7787
3777.8667,97.7974
3778.8308,97.804
3779.7952,97.7937
3780.7593,97.7689
3781.7236,97.7379
3782.6877,97.7111
3783.6521,97.6974
3784.6162,97.701
3785.5806,97.7185
3786.5447,97.7405
3787.5090,97.7566
3788.4731,97.7619
3789.4375,97.7584
3790.4016,97.7528
3791.3660,97.7519
3792.3301,97.7588
3793.2944,97.7711
3794.2585,97.7827
3795.2229,97.7877
3796.1870,97.7849
3797.1514,97.7787
3798.1155,97.775
3799.0798,97.7762
3800.0439,97.7783
3801.0083,97.7747
3801.9724,97.7632
3802.9368,97.7498
3803.9009,97.7424
3804.8652,97.7437
3805.8293,97.7495
3806.7937,97.7515
3807.7578,97.7444
3808.7222,97.7322
3809.6863,97.7246
3810.6506,97.7284
3811.6147,97.7443
3812.5791,97.7656
3813.5432,97.7794
3814.5076,97.7714
3815.4717,97.7377
3816.4360,97.6924
3817.4001,97.6574
3818.3645,97.6476
3819.3286,97.6646
3820.2930,97.697
3821.2571,97.7268
3822.2214,97.7416
3823.1855,97.7404
3824.1499,97.7282
3825.1140,97.7087
3826.0784,97.684
3827.0425,97.6571
3828.0068,97.6334
3828.9709,97.6189
3829.9353,97.6175
3830.8994,97.629
3831.8638,97.6495
3832.8279,97.6742
3833.7922,97.6988
3834.7563,97.7193
3835.7207,97.7305
3836.6848,97.7264
3837.6492,97.7053
3838.6133,97.6748
3839.5776,97.6507
3840.5417,97.6444
3841.5061,97.6557
3842.4702,97.6744
3843.4346,97.688
3844.3987,97.6893
3845.3630,97.679
3846.3271,97.6647
3847.2915,97.6552
3848.2556,97.6581
3849.2200,97.6791
3850.1841,97.7233
3851.1484,97.7917
3852.1125,97.8688
3853.0769,97.9124
3854.0410,97.8919
3855.0054,97.8289
3855.9695,97.7609
3856.9338,97.7074
3857.8979,97.6734
3858.8623,97.6586
3859.8264,97.6603
3860.7908,97.6731
3861.7549,97.6887
3862.7192,97.6986
3863.6833,97.7
3864.6477,97.6967
3865.6118,97.6935
3866.5762,97.6905
3867.5403,97.6828
3868.5046,97.6652
3869.4688,97.6368
3870.4331,97.6046
3871.3972,97.5795
3872.3616,97.5681
3873.3257,97.5695
3874.2900,97.5796
3875.2542,97.596
3876.2185,97.6191
3877.1826,97.6491
3878.1470,97.6836
3879.1111,97.7154
3880.0754,97.7355
3881.0396,97.7384
3882.0039,97.726
3882.9680,97.7036
3883.9324,97.6759
3884.8965,97.6471
3885.8608,97.6234
3886.8250,97.6131
3887.7893,97.6234
3888.7534,97.6554
3889.7178,97.7009
3890.6819,97.7406
3891.6462,97.751
3892.6104,97.723
3893.5747,97.6705
3894.5388,97.6168
3895.5032,97.5794
3896.4673,97.5662
3897.4316,97.5779
3898.3958,97.6083
3899.3601,97.6461
3900.3242,97.6785
3901.2886,97.6975
3902.2527,97.7008
3903.2170,97.6891
3904.1812,97.6657
3905.1455,97.6373
3906.1096,97.6128
3907.0740,97.6004
3908.0381,97.6043
3909.0024,97.6236
3909.9666,97.6512
3910.9309,97.6769
3911.8950,97.6916
3912.8594,97.6931
3913.8235,97.6868
3914.7878,97.6822
3915.7520,97.6861
3916.7163,97.6974
3917.6804,97.7076
3918.6448,97.708
3919.6089,97.6968
3920.5732,97.6788
3921.5374,97.6606
3922.5017,97.6464
3923.4658,97.6371
3924.4302,97.6318
3925.3943,97.6299
3926.3586,97.632
3927.3228,97.6383
3928.2871,97.6468
3929.2512,97.6527
3930.2156,97.6503
3931.1797,97.6368
3932.1440,97.6158
3933.1082,97.5955
3934.0725,97.583
3935.0366,97.5804
3936.0010,97.5851
3936.9651,97.593
3937.9294,97.601
3938.8936,97.6082
3939.8579,97.6162
3940.8220,97.6268
3941.7864,97.6397
3942.7505,97.6514
3943.7148,97.6565
3944.6790,97.6512
3945.6433,97.6355
3946.6074,97.6136
3947.5718,97.5933
3948.5359,97.5833
3949.5002,97.5895
3950.4644,97.6109
3951.4287,97.6402
3952.3931,97.6679
3953.3572,97.6856
3954.3215,97.6889
3955.2856,97.6777
3956.2500,97.6567
3957.2141,97.6325
3958.1785,97.6119
3959.1426,97.5987
3960.1069,97.5935
3961.0710,97.5945
3962.0354,97.5992
3962.9995,97.6057
3963.9639,97.6136
3964.9280,97.6226
3965.8923,97.6315
3966.8564,97.6376
3967.8208,97.6378
3968.7849,97.631
3969.7493,97.6191
3970.7134,97.6068
3971.6777,97.599
3972.6418,97.5983
3973.6062,97.6035
3974.5703,97.6111
3975.5347,97.6177
3976.4988,97.6221
3977.4631,97.6255
3978.4272,97.6292
3979.3916,97.6328
3980.3557,97.6334
3981.3201,97.6274
3982.2842,97.6128
3983.2485,97.5914
3984.2126,97.5686
3985.1770,97.551
3986.1411,97.5436
3987.1055,97.5474
3988.0696,97.5593
3989.0339,97.5735
3989.9980,97.5848
3990.9624,97.5905
3991.9265,97.5915
3992.8909,97.5901
3993.8550,97.5885
3994.8193,97.5867
3995.7834,97.5834
3996.7478,97.5774
3997.7119,97.5689
3998.6763,97.5596
3999.6404,97.5518
4000.6047,97.5471
4001.5688,97.5463
4002.5332,97.5495
4003.4973,97.5556
4004.4617,97.5629
4005.4258,97.5685
4006.3901,97.5689
4007.3542,97.5625
4008.3186,97.5507
4009.2827,97.5387
4010.2471,97.5323
4011.2112,97.5349
4012.1755,97.5457
4013.1396,97.5603
4014.1040,97.5744
4015.0681,97.5866
4016.0325,97.5985
4016.9966,97.6132
4017.9609,97.631
4018.9250,97.6483
4019.8894,97.6589
4020.8535,97.6573
4021.8179,97.6431
4022.7820,97.6211
4023.7463,97.5999
4024.7104,97.5869
4025.6748,97.5848
4026.6389,97.5901
4027.6033,97.5962
4028.5674,97.598
4029.5317,97.5952
4030.4958,97.5924
4031.4602,97.5953
4032.4243,97.6063
4033.3887,97.6217
4034.3528,97.6332
4035.3171,97.6329
4036.2813,97.6181
4037.2456,97.5929
4038.2097,97.5658
4039.1741,97.5456
4040.1382,97.537
4041.1025,97.5404
4042.0667,97.5529
4043.0310,97.5697
4043.9951,97.5858
4044.9595,97.5969
4045.9236,97.5999
4046.8879,97.5939
4047.8521,97.5808
4048.8164,97.5648
4049.7805,97.5506
4050.7449,97.5417
4051.7090,97.5393
4052.6733,97.5425
4053.6375,97.5487
4054.6018,97.5554
4055.5659,97.5603
4056.5303,97.5619
4057.4944,97.5593
4058.4587,97.5526
4059.4229,97.5434
4060.3872,97.5347
4061.3513,97.5297
4062.3157,97.53
4063.2798,97.5354
4064.2441,97.5436
4065.2083,97.5518
4066.1726,97.558
4067.1367,97.5621
4068.1011,97.5649
4069.0652,97.5666
4070.0295,97.5659
4070.9937,97.5608
4071.9580,97.5505
4072.9221,97.5373
4073.8865,97.526
4074.8506,97.5222
4075.8149,97.5285
4076.7791,97.543
4077.7434,97.5599
4078.7075,97.5732
4079.6719,97.5796
4080.6360,97.5807
4081.6003,97.5804
4082.5645,97.5816
4083.5288,97.5837
4084.4929,97.583
4085.4573,97.5752
4086.4214,97.5594
4087.3857,97.5389
4088.3499,97.5201
4089.3142,97.5087
4090.2783,97.5072
4091.2427,97.5142
4092.2068,97.5269
4093.1711,97.543
4094.1353,97.5615
4095.0996,97.5815
4096.0640,97.6003
4097.0278,97.6134
4097.9922,97.6172
4098.9565,97.6116
4099.9209,97.6007
4100.8848,97.5914
4101.8491,97.5883
4102.8135,97.5916
4103.7778,97.5964
4104.7417,97.5971
4105.7061,97.5907
4106.6704,97.5788
4107.6348,97.5666
4108.5986,97.5592
4109.5630,97.5596
4110.5273,97.568
4111.4917,97.5823
4112.4556,97.5989
4113.4199,97.6126
4114.3843,97.6178
4115.3486,97.6099
4116.3125,97.5885
4117.2769,97.5591
4118.2412,97.5318
4119.2056,97.5171
4120.1694,97.52
4121.1338,97.5376
4122.0981,97.5599
4123.0625,97.5753
4124.0264,97.577
4124.9907,97.5656
4125.9551,97.5479
4126.9194,97.5317
4127.8833,97.5221
4128.8477,97.5195
4129.8120,97.5217
4130.7764,97.5269
4131.7402,97.5353
4132.7046,97.5482
4133.6689,97.5653
4134.6333,97.5834
4135.5972,97.5977
4136.5615,97.6043
4137.5259,97.6028
4138.4902,97.5962
4139.4541,97.5882
4140.4185,97.5809
4141.3828,97.5742
4142.3472,97.5662
4143.3110,97.5562
4144.2754,97.5451
4145.2397,97.5352
4146.2041,97.5288
4147.1680,97.5281
4148.1323,97.5351
4149.0967,97.5509
4150.0610,97.5748
4151.0249,97.6022
4151.9893,97.6249
4152.9536,97.6343
4153.9180,97.6261
4154.8818,97.603
4155.8462,97.5741
4156.8105,97.55
4157.7749,97.5378
4158.7388,97.5381
4159.7031,97.5472
4160.6675,97.5607
4161.6318,97.5757
4162.5957,97.5908
4163.5601,97.6048
4164.5244,97.6151
4165.4888,97.6186
4166.4526,97.6144
4167.4170,97.6039
4168.3813,97.591
4169.3457,97.5788
4170.3096,97.5686
4171.2739,97.5597
4172.2383,97.5508
4173.2026,97.541
4174.1665,97.5302
4175.1309,97.5185
4176.0952,97.5055
4177.0596,97.4918
4178.0234,97.4802
4178.9878,97.4755
4179.9521,97.4822
4180.9165,97.5018
4181.8804,97.5301
4182.8447,97.5587
4183.8091,97.5788
4184.7734,97.5857
4185.7373,97.5811
4186.7017,97.571
4187.6660,97.5616
4188.6304,97.5557
4189.5942,97.552
4190.5586,97.5472
4191.5229,97.5399
4192.4873,97.5326
4193.4512,97.5304
4194.4155,97.5372
4195.3799,97.5524
4196.3442,97.5709
4197.3081,97.5859
4198.2725,97.5926
4199.2368,97.5907
4200.2012,97.5832
4201.1650,97.5738
4202.1294,97.5638
4203.0938,97.5525
4204.0581,97.5381
4205.0220,97.521
4205.9863,97.504
4206.9507,97.4912
4207.9150,97.4862
4208.8789,97.4901
4209.8433,97.501
4210.8076,97.5146
4211.7720,97.5263
4212.7358,97.5325
4213.7002,97.5318
4214.6646,97.5262
4215.6289,97.5191
4216.5928,97.5146
4217.5571,97.5147
4218.5215,97.5188
4219.4858,97.5248
4220.4497,97.5312
4221.4141,97.5384
4222.3784,97.5485
4223.3428,97.5631
4224.3066,97.5811
4225.2710,97.5986
4226.2354,97.6104
4227.1997,97.6134
4228.1636,97.6081
4229.1279,97.5976
4230.0923,97.5863
4231.0566,97.577
4232.0205,97.5711
4232.9849,97.5688
4233.9492,97.5698
4234.9136,97.5733
4235.8774,97.5767
4236.8418,97.5767
4237.8062,97.5716
4238.7705,97.5641
4239.7344,97.5611
4240.6987,97.5709
4241.6631,97.5965
4242.6274,97.6318
4243.5913,97.6626
4244.5557,97.6735
4245.5200,97.6572
4246.4844,97.6193
4247.4482,97.5762
4248.4126,97.5461
4249.3770,97.5397
4250.3413,97.5544
4251.3052,97.5776
4252.2695,97.5942
4253.2339,97.5947
4254.1982,97.5789
4255.1621,97.5534
4256.1265,97.5265
4257.0908,97.5041
4258.0552,97.4881
4259.0190,97.4785
4259.9834,97.4764
4260.9478,97.4835
4261.9121,97.501
4262.8760,97.5269
4263.8403,97.5554
4264.8047,97.5786
4265.7690,97.5908
4266.7329,97.5906
4267.6973,97.5812
4268.6616,97.5682
4269.6260,97.5559
4270.5898,97.5462
4271.5542,97.5391
4272.5186,97.5338
4273.4829,97.5303
4274.4468,97.529
4275.4111,97.5304
4276.3755,97.5346
4277.3398,97.5424
4278.3037,97.5548
4279.2681,97.5724
4280.2324,97.5934
4281.1968,97.6127
4282.1606,97.6236
4283.1250,97.6227
4284.0894,97.6123
4285.0537,97.6008
4286.0176,97.5979
4286.9819,97.6081
4287.9463,97.6282
4288.9106,97.6488
4289.8745,97.6603
4290.8389,97.658
4291.8032,97.6439
4292.7676,97.6235
4293.7314,97.6017
4294.6958,97.5808
4295.6602,97.5611
4296.6245,97.5425
4297.5884,97.5254
4298.5527,97.5105
4299.5171,97.4974
4300.4814,97.4858
4301.4453,97.4765
4302.4097,97.4723
4303.3740,97.4765
4304.3384,97.49
4305.3022,97.5093
4306.2666,97.5274
4307.2310,97.5374
4308.1953,97.5367
4309.1592,97.5282
4310.1235,97.5191
4311.0879,97.5165
4312.0522,97.5244
4313.0161,97.5427
4313.9805,97.5672
4314.9448,97.5916
4315.9092,97.6092
4316.8730,97.616
4317.8374,97.6125
4318.8018,97.6046
4319.7661,97.6007
4320.7300,97.6069
4321.6943,97.6233
4322.6587,97.643
4323.6230,97.6567
4324.5869,97.6581
4325.5513,97.647
4326.5156,97.6276
4327.4800,97.6043
4328.4438,97.5796
4329.4082,97.5549
4330.3726,97.5346
4331.3369,97.5267
4332.3008,97.5395
4333.2651,97.5739
4334.2295,97.6197
4335.1938,97.6583
4336.1577,97.6722
4337.1221,97.6552
4338.0864,97.6165
4339.0508,97.5755
4340.0146,97.5508
4340.9790,97.5508
4341.9434,97.5703
4342.9077,97.5943
4343.8716,97.6074
4344.8359,97.6011
4345.8003,97.5786
4346.7646,97.5523
4347.7285,97.5376
4348.6929,97.5444
4349.6572,97.5712
4350.6216,97.6056
4351.5854,97.6307
4352.5498,97.6348
4353.5142,97.6181
4354.4785,97.5918
4355.4424,97.5705
4356.4067,97.5631
4357.3711,97.5689
4358.3354,97.5805
4359.2993,97.5902
4360.2637,97.5957
4361.2280,97.5987
4362.1924,97.6011
4363.1563,97.6018
4364.1206,97.5974
4365.0850,97.5871
4366.0493,97.5747
4367.0132,97.567
4367.9775,97.5685
4368.9419,97.5774
4369.9063,97.5873
4370.8701,97.5925
4371.8345,97.5935
4372.7988,97.5964
4373.7632,97.6068
4374.7271,97.6235
4375.6914,97.6371
4376.6558,97.6362
4377.6201,97.6158
4378.5840,97.5817
4379.5483,97.5474
4380.5127,97.5249
4381.4771,97.5177
4382.4409,97.5206
4383.4053,97.5255
4384.3696,97.5285
4385.3340,97.5317
4386.2979,97.5393
4387.2622,97.5509
4388.2266,97.56
4389.1909,97.5575
4390.1548,97.5392
4391.1191,97.51
4392.0835,97.4817
4393.0479,97.4655
4394.0117,97.4654
4394.9761,97.4764
4395.9404,97.4895
4396.9048,97.4974
4397.8687,97.4985
4398.8330,97.4952
4399.7974,97.4896
4400.7617,97.4803
4401.7256,97.4646
4402.6899,97.4421
4403.6543,97.4187
4404.6187,97.4054
4405.5825,97.4127
4406.5469,97.4434
4407.5112,97.49
4408.4756,97.5375
4409.4395,97.572
4410.4038,97.5881
4411.3682,97.5907
4412.3325,97.5903
4413.2964,97.5944
4414.2607,97.6017
4415.2251,97.604
4416.1895,97.5936
4417.1533,97.5712
4418.1177,97.5487
4419.0820,97.5427
4420.0464,97.5642
4421.0103,97.6104
4421.9746,97.6635
4422.9390,97.6995
4423.9033,97.6995
4424.8672,97.6593
4425.8315,97.5908
4426.7959,97.5165
4427.7603,97.4592
4428.7241,97.4339
4429.6885,97.4439
4430.6528,97.482
4431.6172,97.5357
4432.5811,97.5918
4433.5454,97.6397
4434.5098,97.6725
4435.4741,97.6859
4436.4380,97.6776
4437.4023,97.649
4438.3667,97.6056
4439.3311,97.5579
4440.2949,97.5189
4441.2593,97.4986
4442.2236,97.5002
4443.1880,97.5182
4444.1519,97.5414
4445.1162,97.5594
4446.0806,97.5665
4447.0449,97.563
4448.0088,97.5524
4448.9731,97.5381
4449.9375,97.5219
4450.9019,97.5057
4451.8657,97.4934
4452.8301,97.4907
4453.7944,97.5017
4454.7588,97.525
4455.7227,97.5527
4456.6870,97.5739
4457.6514,97.5812
4458.6157,97.5753
4459.5796,97.5645
4460.5439,97.5596
4461.5083,97.5666
4462.4727,97.5832
4463.4365,97.6004
4464.4009,97.6076
4465.3652,97.5999
4466.3296,97.5807
4467.2935,97.5611
4468.2578,97.5536
4469.2222,97.5662
4470.1865,97.5974
4471.1504,97.6372
4472.1147,97.6716
4473.0791,97.6898
4474.0435,97.6887
4475.0073,97.6737
4475.9717,97.6542
4476.9360,97.6376
4477.9004,97.6256
4478.8643,97.6152
4479.8286,97.6019
4480.7930,97.5849
4481.7573,97.5676
4482.7212,97.5562
4483.6855,97.5559
4484.6499,97.5676
4485.6143,97.587
4486.5781,97.6063
4487.5425,97.6175
4488.5068,97.6159
4489.4712,97.6023
4490.4351,97.5834
4491.3994,97.5686
4492.3638,97.5649
4493.3281,97.5724
4494.2920,97.5829
4495.2563,97.5845
4496.2207,97.5685
4497.1851,97.5372
4498.1489,97.5042
4499.1133,97.4878
4500.0776,97.5009
4501.0420,97.542
4502.0059,97.5944
4502.9702,97.6347
4503.9346,97.6449
4504.8989,97.6228
4505.8628,97.5825
4506.8271,97.5468
4507.7915,97.5348
4508.7559,97.5519
4509.7197,97.5882
4510.6841,97.6248
4511.6484,97.6449
4512.6128,97.642
4513.5767,97.622
4514.5410,97.5976
4515.5054,97.5806
4516.4697,97.5756
4517.4336,97.5793
4518.3979,97.5841
4519.3623,97.5845
4520.3267,97.5796
4521.2905,97.5729
4522.2549,97.5684
4523.2192,97.568
4524.1836,97.5701
4525.1475,97.5726
4526.1118,97.5751
4527.0762,97.5806
4528.0405,97.5935
4529.0044,97.6165
4529.9688,97.6474
4530.9331,97.679
4531.8975,97.7018
4532.8613,97.7074
4533.8257,97.6929
4534.7900,97.6613
4535.7544,97.6206
4536.7183,97.5807
4537.6826,97.5501
4538.6470,97.5337
4539.6113,97.5315
4540.5752,97.5388
4541.5396,97.5482
4542.5039,97.5522
4543.4683,97.546
4544.4321,97.5302
4545.3965,97.5103
4546.3608,97.4947
4547.3252,97.4908
4548.2891,97.5012
4549.2534,97.5228
4550.2178,97.5481
4551.1821,97.569
4552.1460,97.5803
4553.1104,97.5815
4554.0747,97.5759
4555.0391,97.5686
4556.0029,97.5639
4556.9673,97.5641
4557.9316,97.5687
4558.8960,97.5758
4559.8599,97.5836
4560.8242,97.5912
4561.7886,97.5988
4562.7529,97.6066
4563.7168,97.6126
4564.6812,97.6131
4565.6455,97.6038
4566.6099,97.5831
4567.5737,97.555
4568.5381,97.5279
4569.5024,97.5105
4570.4668,97.507
4571.4307,97.5152
4572.3950,97.5287
4573.3594,97.5422
4574.3237,97.5555
4575.2876,97.5732
4576.2520,97.5999
4577.2163,97.6346
4578.1807,97.6693
4579.1445,97.6926
4580.1089,97.6957
4581.0732,97.6774
4582.0376,97.6446
4583.0015,97.6083
4583.9658,97.5784
4584.9302,97.56
4585.8945,97.5532
4586.8584,97.5547
4587.8228,97.5604
4588.7871,97.567
4589.7515,97.5725
4590.7153,97.5762
4591.6797,97.5778
4592.6440,97.5768
4593.6084,97.5721
4594.5723,97.5622
4595.5366,97.5464
4596.5010,97.5272
4597.4653,97.5105
4598.4292,97.505
4599.3936,97.5178
4600.3579,97.5499
4601.3223,97.5935
4602.2861,97.6332
4603.2505,97.6526
4604.2148,97.6411
4605.1792,97.5993
4606.1431,97.5394
4607.1074,97.4801
4608.0718,97.4391
4609.0361,97.4262
4610.0000,97.4406
4610.9644,97.4721
4611.9287,97.5064
4612.8931,97.5313
4613.8569,97.5418
4614.8213,97.5413
4615.7856,97.5392
4616.7500,97.5442
4617.7139,97.5588
4618.6782,97.5771
4619.6426,97.5883
4620.6069,97.5833
4621.5708,97.5616
4622.5352,97.5316
4623.4995,97.5066
4624.4639,97.4968
4625.4277,97.5039
4626.3921,97.5219
4627.3564,97.542
4628.3208,97.5581
4629.2847,97.5688
4630.2490,97.5751
4631.2134,97.5767
4632.1777,97.5712
4633.1416,97.5559
4634.1060,97.5318
4635.0703,97.5045
4636.0347,97.4819
4636.9985,97.4692
4637.9629,97.4665
4638.9272,97.4703
4639.8916,97.478
4640.8555,97.4903
4641.8198,97.5101
4642.7842,97.5376
4643.7485,97.567
4644.7124,97.587
4645.6768,97.5877
4646.6411,97.5678
4647.6055,97.5368
4648.5693,97.5104
4649.5337,97.5013
4650.4980,97.512
4651.4624,97.5343
4652.4263,97.5553
4653.3906,97.5656
4654.3550,97.5643
4655.3193,97.557
4656.2832,97.5502
4657.2476,97.5469
4658.2119,97.5449
4659.1763,97.5406
4660.1401,97.5328
4661.1045,97.5241
4662.0688,97.5187
4663.0332,97.5187
4663.9971,97.5216
4664.9614,97.5215
4665.9258,97.5122
4666.8901,97.4918
4667.8540,97.4643
4668.8184,97.4388
4669.7827,97.4245
4670.7471,97.4268
4671.7109,97.4447
4672.6753,97.4714
4673.6396,97.4986
4674.6040,97.5206
4675.5679,97.5364
4676.5322,97.5478
4677.4966,97.5566
4678.4609,97.5617
4679.4248,97.5596
4680.3892,97.5474
4681.3535,97.5252
4682.3179,97.4969
4683.2817,97.4674
4684.2461,97.4411
4685.2104,97.4207
4686.1748,97.4091
4687.1387,97.4099
4688.1030,97.4253
4689.0674,97.4529
4690.0317,97.4835
4690.9956,97.5042
4691.9600,97.506
4692.9243,97.4898
4693.8887,97.4678
4694.8525,97.457
4695.8169,97.4698
4696.7813,97.5075
4697.7456,97.5592
4698.7095,97.608
4699.6738,97.6377
4700.6382,97.6389
4701.6025,97.6115
4702.5664,97.5645
4703.5308,97.5139
4704.4951,97.4771
4705.4595,97.4663
4706.4233,97.4818
4707.3877,97.5115
4708.3521,97.5366
4709.3164,97.5429
4710.2803,97.5289
4711.2446,97.5062
4712.2090,97.4915
4713.1733,97.4948
4714.1372,97.5136
4715.1016,97.5363
4716.0659,97.5512
4717.0303,97.5548
4717.9941,97.5527
4718.9585,97.5537
4719.9229,97.5613
4720.8872,97.5707
4721.8511,97.5714
4722.8154,97.5556
4723.7798,97.5241
4724.7441,97.4871
4725.7080,97.4585
4726.6724,97.4488
4727.6367,97.4602
4728.6011,97.4865
4729.5649,97.5172
4730.5293,97.542
4731.4937,97.5537
4732.4580,97.5496
4733.4219,97.5307
4734.3862,97.5021
4735.3506,97.472
4736.3149,97.4495
4737.2788,97.4407
4738.2432,97.4456
4739.2075,97.4576
4740.1719,97.4681
4741.1357,97.4722
4742.1001,97.4724
4743.0645,97.4763
4744.0288,97.4905
4744.9927,97.5136
4745.9570,97.5365
4746.9214,97.5475
4747.8857,97.5403
4748.8496,97.5185
4749.8140,97.4929
4750.7783,97.4751
4751.7427,97.4705
4752.7065,97.477
4753.6709,97.4874
4754.6353,97.4949
4755.5996,97.4964
4756.5635,97.4939
4757.5278,97.4921
4758.4922,97.4949
4759.4565,97.5032
4760.4204,97.5126
4761.3848,97.5151
4762.3491,97.5037
4763.3135,97.4771
4764.2773,97.4435
4765.2417,97.4176
4766.2061,97.4132
4767.1704,97.4345
4768.1343,97.4726
4769.0986,97.5104
4770.0630,97.5325
4771.0273,97.534
4771.9912,97.5214
4772.9556,97.5061
4773.9199,97.4947
4774.8843,97.4854
4775.8481,97.471
4776.8125,97.4464
4777.7769,97.4139
4778.7412,97.3825
4779.7051,97.3617
4780.6694,97.3554
4781.6338,97.3606
4782.5981,97.3709
4783.5620,97.3816
4784.5264,97.3928
4785.4907,97.408
4786.4551,97.4299
4787.4189,97.4571
4788.3833,97.484
4789.3477,97.5037
4790.3120,97.5114
4791.2759,97.5068
4792.2402,97.4946
4793.2046,97.4811
4794.1689,97.4706
4795.1328,97.4631
4796.0972,97.4542
4797.0615,97.4385
4798.0259,97.4144
4798.9897,97.3873
4799.9541,97.3673
4800.9185,97.3649
4801.8828,97.3847
4802.8467,97.4228
4803.8110,97.4698
4804.7754,97.5156
4805.7397,97.5542
4806.7036,97.5841
4807.6680,97.6062
4808.6323,97.62
4809.5967,97.6227
4810.5605,97.6107
4811.5249,97.5818
4812.4893,97.5371
4813.4536,97.4812
4814.4175,97.4214
4815.3818,97.3667
4816.3462,97.326
4817.3105,97.3062
4818.2744,97.3097
4819.2388,97.3332
4820.2031,97.3683
4821.1675,97.4047
4822.1313,97.4351
4823.0957,97.4568
4824.0601,97.4719
4825.0244,97.4849
4825.9883,97.499
4826.9526,97.5156
4827.9170,97.5341
4828.8813,97.5529
4829.8452,97.5714
4830.8096,97.5896
4831.7739,97.6076
4832.7383,97.6243
4833.7021,97.6362
4834.6665,97.6381
4835.6309,97.6254
4836.5952,97.5981
4837.5591,97.5628
4838.5234,97.5315
4839.4878,97.5155
4840.4521,97.5189
4841.4160,97.5359
4842.3804,97.5534
4843.3447,97.5595
4844.3091,97.5495
4845.2729,97.5277
4846.2373,97.5034
4847.2017,97.4844
4848.1660,97.4742
4849.1299,97.4739
4850.0942,97.4847
4851.0586,97.5084
4852.0229,97.5428
4852.9868,97.5779
4853.9512,97.5969
4854.9155,97.5839
4855.8799,97.5352
4856.8438,97.4644
4857.8081,97.3974
4858.7725,97.36
4859.7368,97.3641
4860.7007,97.403
4861.6650,97.4567
4862.6294,97.503
4863.5938,97.5276
4864.5576,97.5272
4865.5220,97.5064
4866.4863,97.4734
4867.4507,97.4381
4868.4146,97.4115
4869.3789,97.4045
4870.3433,97.4237
4871.3076,97.4655
4872.2715,97.5151
4873.2358,97.552
4874.2002,97.5613
4875.1646,97.5438
4876.1284,97.516
4877.0928,97.4997
4878.0571,97.5068
4879.0215,97.5304
4879.9854,97.5478
4880.9497,97.5355
4881.9141,97.4851
4882.8784,97.4115
4883.8423,97.3463
4884.8066,97.3218
4885.7710,97.3543
4886.7354,97.4362
4887.6992,97.5396
4888.6636,97.6296
4889.6279,97.6787
4890.5923,97.6772
4891.5562,97.6347
4892.5205,97.5735
4893.4849,97.5183
4894.4492,97.4857
4895.4131,97.4791
4896.3774,97.4896
4897.3418,97.5023
4898.3062,97.5041
4899.2700,97.4888
4900.2344,97.4583
4901.1987,97.4197
4902.1631,97.3831
4903.1270,97.3591
4904.0913,97.3575
4905.0557,97.3856
4906.0200,97.4439
4906.9839,97.5237
4907.9482,97.6068
4908.9126,97.6708
4909.8770,97.6972
4910.8408,97.6778
4911.8052,97.6168
4912.7695,97.5279
4913.7339,97.4303
4914.6978,97.3445
4915.6621,97.2896
4916.6265,97.279
4917.5908,97.3158
4918.5547,97.388
4919.5190,97.4697
4920.4834,97.5301
4921.4478,97.5482
4922.4116,97.5239
4923.3760,97.4775
4924.3403,97.4374
4925.3047,97.4224
4926.2686,97.431
4927.2329,97.4445
4928.1973,97.4428
4929.1616,97.4201
4930.1255,97.3908
4931.0898,97.3801
4932.0542,97.407
4933.0186,97.4708
4933.9824,97.5506
4934.9468,97.6176
4935.9111,97.6498
4936.8755,97.6418
4937.8394,97.6029
4938.8037,97.5486
4939.7681,97.4934
4940.7324,97.4476
4941.6963,97.4187
4942.6606,97.4113
4943.6250,97.4248
4944.5894,97.45
4945.5532,97.4701
4946.5176,97.4691
4947.4819,97.4411
4948.4463,97.396
4949.4102,97.3553
4950.3745,97.3401
4951.3389,97.3585
4952.3032,97.4012
4953.2671,97.4464
4954.2314,97.4705
4955.1958,97.4589
4956.1602,97.4101
4957.1240,97.3353
4958.0884,97.2538
4959.0527,97.1883
4960.0171,97.1587
4960.9810,97.1767
4961.9453,97.2397
4962.9097,97.3288
4963.8740,97.4134
4964.8379,97.4623
4965.8022,97.4586
4966.7666,97.409
4967.7310,97.3429
4968.6948,97.2984
4969.6592,97.3035
4970.6235,97.3616
4971.5879,97.4491
4972.5518,97.527
4973.5161,97.5611
4974.4805,97.5385
4975.4448,97.4724
4976.4087,97.3934
4977.3730,97.3335
4978.3374,97.3124
4979.3018,97.3331
4980.2656,97.3845
4981.2300,97.4484
4982.1943,97.5064
4983.1587,97.5435
4984.1226,97.5513
4985.0869,97.5305
4986.0513,97.4916
4987.0156,97.4514
4987.9795,97.4256
4988.9438,97.4209
4989.9082,97.4315
4990.8726,97.4435
4991.8364,97.4436
4992.8008,97.4275
4993.7651,97.4023
4994.7295,97.3819
4995.6934,97.3795
4996.6577,97.4001
4997.6221,97.4387
4998.5864,97.4829
4999.5503,97.5192
5000.5146,97.5384

##### Extended Information
[Comments]
Sample name
Comment
User
Division
Company,UNIVERSIDAD DEL QUINDIO

[Detailed Information]
Creation date,21/08/2024 12:36 p.m.

Data array type,Linear data array
Horizontal axis,Wavenumber [cm-1]
Vertical axis,%T
Start,249.736 cm-1
End,5000.51 cm-1
Data interval,0.964233 cm-1
Data points,4928    

[Measurement Information]
Model Name,FT/IR-4700typeA
Serial Number,D049361788

Accessory,ATR PRO ONE
Accessory S/N,C146161809
Incident angle,45 deg

Measurement Date,21/08/2024 12:34 p.m.

Light Source,Standard
Detector,TGS
Accumulation,50
Resolution,4 cm-1
Zero Filling,On
Apodization,Cosine
Gain,Auto (8)
Aperture,Auto (7.1 mm)
Scanning Speed,Auto (2 mm/sec)
Filter,Auto (30000 Hz)

